# E (eV)   ldos(E)   pdos(E)    pdos(E)    pdos(E)   
 -16.436  0.508E-07  0.445E-07  0.312E-08  0.312E-08
 -16.336  0.459E-06  0.397E-06  0.308E-07  0.308E-07
 -16.236  0.322E-05  0.274E-05  0.238E-06  0.238E-06
 -16.136  0.176E-04  0.147E-04  0.145E-05  0.145E-05
 -16.036  0.757E-04  0.618E-04  0.693E-05  0.693E-05
 -15.936  0.257E-03  0.204E-03  0.265E-04  0.265E-04
 -15.836  0.697E-03  0.535E-03  0.812E-04  0.812E-04
 -15.736  0.153E-02  0.113E-02  0.203E-03  0.203E-03
 -15.636  0.279E-02  0.194E-02  0.424E-03  0.424E-03
 -15.536  0.429E-02  0.278E-02  0.755E-03  0.755E-03
 -15.436  0.578E-02  0.339E-02  0.119E-02  0.119E-02
 -15.336  0.708E-02  0.359E-02  0.175E-02  0.175E-02
 -15.236  0.822E-02  0.338E-02  0.242E-02  0.242E-02
 -15.136  0.938E-02  0.298E-02  0.320E-02  0.320E-02
 -15.036  0.107E-01  0.264E-02  0.404E-02  0.403E-02
 -14.936  0.122E-01  0.254E-02  0.485E-02  0.484E-02
 -14.836  0.139E-01  0.272E-02  0.557E-02  0.557E-02
 -14.736  0.154E-01  0.318E-02  0.612E-02  0.612E-02
 -14.636  0.168E-01  0.397E-02  0.641E-02  0.641E-02
 -14.536  0.179E-01  0.508E-02  0.640E-02  0.640E-02
 -14.436  0.187E-01  0.629E-02  0.623E-02  0.623E-02
 -14.336  0.196E-01  0.719E-02  0.622E-02  0.622E-02
 -14.236  0.209E-01  0.747E-02  0.670E-02  0.670E-02
 -14.136  0.228E-01  0.728E-02  0.774E-02  0.774E-02
 -14.036  0.252E-01  0.715E-02  0.901E-02  0.901E-02
 -13.936  0.274E-01  0.752E-02  0.995E-02  0.995E-02
 -13.836  0.287E-01  0.850E-02  0.101E-01  0.101E-01
 -13.736  0.286E-01  0.975E-02  0.943E-02  0.943E-02
 -13.636  0.273E-01  0.107E-01  0.832E-02  0.832E-02
 -13.536  0.250E-01  0.107E-01  0.714E-02  0.714E-02
 -13.436  0.216E-01  0.968E-02  0.598E-02  0.598E-02
 -13.336  0.175E-01  0.798E-02  0.474E-02  0.474E-02
 -13.236  0.128E-01  0.602E-02  0.337E-02  0.337E-02
 -13.136  0.821E-02  0.407E-02  0.207E-02  0.207E-02
 -13.036  0.452E-02  0.237E-02  0.107E-02  0.107E-02
 -12.936  0.209E-02  0.116E-02  0.466E-03  0.466E-03
 -12.836  0.794E-03  0.457E-03  0.169E-03  0.169E-03
 -12.736  0.246E-03  0.144E-03  0.510E-04  0.510E-04
 -12.636  0.615E-04  0.359E-04  0.128E-04  0.128E-04
 -12.536  0.123E-04  0.703E-05  0.263E-05  0.263E-05
 -12.436  0.195E-05  0.108E-05  0.438E-06  0.438E-06
 -12.336  0.245E-06  0.128E-06  0.586E-07  0.586E-07
 -12.236  0.243E-07  0.119E-07  0.623E-08  0.623E-08
 -12.136  0.190E-08  0.853E-09  0.523E-09  0.523E-09
 -12.036  0.117E-09  0.475E-10  0.345E-10  0.345E-10
 -11.936  0.562E-11  0.205E-11  0.179E-11  0.179E-11
 -11.836  0.212E-12  0.681E-13  0.720E-13  0.720E-13
 -11.736  0.608E-14  0.158E-14  0.225E-14  0.225E-14
 -11.636  0.897E-16  0.400E-17  0.429E-16  0.429E-16
 -11.536  0.000E+00  0.000E+00  0.000E+00  0.000E+00
 -11.436  0.000E+00  0.000E+00  0.000E+00  0.000E+00
 -11.336  0.000E+00  0.000E+00  0.000E+00  0.000E+00
 -11.236  0.000E+00  0.000E+00  0.000E+00  0.000E+00
 -11.136  0.000E+00  0.000E+00  0.000E+00  0.000E+00
 -11.036  0.000E+00  0.000E+00  0.000E+00  0.000E+00
 -10.936  0.000E+00  0.000E+00  0.000E+00  0.000E+00
 -10.836  0.000E+00  0.000E+00  0.000E+00  0.000E+00
 -10.736  0.000E+00  0.000E+00  0.000E+00  0.000E+00
 -10.636  0.000E+00  0.000E+00  0.000E+00  0.000E+00
 -10.536  0.000E+00  0.000E+00  0.000E+00  0.000E+00
 -10.436  0.000E+00  0.000E+00  0.000E+00  0.000E+00
 -10.336  0.000E+00  0.000E+00  0.000E+00  0.000E+00
 -10.236  0.000E+00  0.000E+00  0.000E+00  0.000E+00
 -10.136  0.000E+00  0.000E+00  0.000E+00  0.000E+00
 -10.036  0.000E+00  0.000E+00  0.000E+00  0.000E+00
  -9.936  0.000E+00  0.000E+00  0.000E+00  0.000E+00
  -9.836  0.000E+00  0.000E+00  0.000E+00  0.000E+00
  -9.736  0.000E+00  0.000E+00  0.000E+00  0.000E+00
  -9.636  0.000E+00  0.000E+00  0.000E+00  0.000E+00
  -9.536  0.000E+00  0.000E+00  0.000E+00  0.000E+00
  -9.436  0.000E+00  0.000E+00  0.000E+00  0.000E+00
  -9.336  0.000E+00  0.000E+00  0.000E+00  0.000E+00
  -9.236  0.000E+00  0.000E+00  0.000E+00  0.000E+00
  -9.136  0.000E+00  0.000E+00  0.000E+00  0.000E+00
  -9.036  0.000E+00  0.000E+00  0.000E+00  0.000E+00
  -8.936  0.000E+00  0.000E+00  0.000E+00  0.000E+00
  -8.836  0.000E+00  0.000E+00  0.000E+00  0.000E+00
  -8.736  0.122E-12  0.525E-16  0.611E-13  0.611E-13
  -8.636  0.561E-11  0.237E-14  0.281E-11  0.281E-11
  -8.536  0.173E-09  0.750E-13  0.865E-10  0.864E-10
  -8.436  0.409E-08  0.187E-11  0.204E-08  0.204E-08
  -8.336  0.742E-07  0.361E-10  0.371E-07  0.371E-07
  -8.236  0.103E-05  0.561E-09  0.517E-06  0.517E-06
  -8.136  0.111E-04  0.726E-08  0.554E-05  0.554E-05
  -8.036  0.916E-04  0.809E-07  0.458E-04  0.458E-04
  -7.936  0.584E-03  0.792E-06  0.292E-03  0.292E-03
  -7.836  0.288E-02  0.676E-05  0.144E-02  0.144E-02
  -7.736  0.111E-01  0.488E-04  0.551E-02  0.551E-02
  -7.636  0.333E-01  0.291E-03  0.165E-01  0.165E-01
  -7.536  0.798E-01  0.140E-02  0.392E-01  0.392E-01
  -7.436  0.155E+00  0.543E-02  0.749E-01  0.749E-01
  -7.336  0.254E+00  0.169E-01  0.119E+00  0.119E+00
  -7.236  0.368E+00  0.423E-01  0.163E+00  0.163E+00
  -7.136  0.496E+00  0.867E-01  0.205E+00  0.205E+00
  -7.036  0.645E+00  0.148E+00  0.248E+00  0.248E+00
  -6.936  0.812E+00  0.216E+00  0.298E+00  0.298E+00
  -6.836  0.974E+00  0.281E+00  0.347E+00  0.347E+00
  -6.736  0.109E+01  0.334E+00  0.377E+00  0.377E+00
  -6.636  0.112E+01  0.366E+00  0.375E+00  0.375E+00
  -6.536  0.104E+01  0.363E+00  0.340E+00  0.340E+00
  -6.436  0.887E+00  0.318E+00  0.284E+00  0.284E+00
  -6.336  0.696E+00  0.246E+00  0.225E+00  0.225E+00
  -6.236  0.521E+00  0.174E+00  0.173E+00  0.173E+00
  -6.136  0.394E+00  0.124E+00  0.135E+00  0.135E+00
  -6.036  0.321E+00  0.992E-01  0.111E+00  0.111E+00
  -5.936  0.287E+00  0.879E-01  0.994E-01  0.994E-01
  -5.836  0.271E+00  0.825E-01  0.943E-01  0.943E-01
  -5.736  0.273E+00  0.869E-01  0.928E-01  0.928E-01
  -5.636  0.307E+00  0.114E+00  0.966E-01  0.966E-01
  -5.536  0.390E+00  0.171E+00  0.109E+00  0.109E+00
  -5.436  0.515E+00  0.251E+00  0.132E+00  0.132E+00
  -5.336  0.643E+00  0.330E+00  0.157E+00  0.157E+00
  -5.236  0.731E+00  0.379E+00  0.176E+00  0.176E+00
  -5.136  0.755E+00  0.387E+00  0.184E+00  0.184E+00
  -5.036  0.728E+00  0.358E+00  0.185E+00  0.185E+00
  -4.936  0.692E+00  0.312E+00  0.190E+00  0.190E+00
  -4.836  0.691E+00  0.273E+00  0.209E+00  0.209E+00
  -4.736  0.738E+00  0.254E+00  0.242E+00  0.242E+00
  -4.636  0.795E+00  0.250E+00  0.273E+00  0.273E+00
  -4.536  0.814E+00  0.248E+00  0.283E+00  0.283E+00
  -4.436  0.776E+00  0.237E+00  0.269E+00  0.269E+00
  -4.336  0.706E+00  0.222E+00  0.242E+00  0.242E+00
  -4.236  0.636E+00  0.208E+00  0.214E+00  0.214E+00
  -4.136  0.578E+00  0.197E+00  0.190E+00  0.190E+00
  -4.036  0.530E+00  0.182E+00  0.174E+00  0.174E+00
  -3.936  0.495E+00  0.159E+00  0.168E+00  0.168E+00
  -3.836  0.483E+00  0.136E+00  0.173E+00  0.173E+00
  -3.736  0.505E+00  0.123E+00  0.191E+00  0.191E+00
  -3.636  0.561E+00  0.129E+00  0.216E+00  0.216E+00
  -3.536  0.638E+00  0.152E+00  0.243E+00  0.243E+00
  -3.436  0.724E+00  0.197E+00  0.263E+00  0.263E+00
  -3.336  0.813E+00  0.267E+00  0.273E+00  0.273E+00
  -3.236  0.894E+00  0.354E+00  0.270E+00  0.270E+00
  -3.136  0.948E+00  0.434E+00  0.257E+00  0.257E+00
  -3.036  0.961E+00  0.482E+00  0.239E+00  0.239E+00
  -2.936  0.935E+00  0.494E+00  0.221E+00  0.221E+00
  -2.836  0.886E+00  0.483E+00  0.201E+00  0.201E+00
  -2.736  0.821E+00  0.456E+00  0.183E+00  0.183E+00
  -2.636  0.740E+00  0.401E+00  0.170E+00  0.170E+00
  -2.536  0.653E+00  0.317E+00  0.168E+00  0.168E+00
  -2.436  0.582E+00  0.226E+00  0.178E+00  0.178E+00
  -2.336  0.538E+00  0.156E+00  0.191E+00  0.191E+00
  -2.236  0.507E+00  0.120E+00  0.193E+00  0.193E+00
  -2.136  0.471E+00  0.111E+00  0.180E+00  0.180E+00
  -2.036  0.429E+00  0.115E+00  0.157E+00  0.157E+00
  -1.936  0.392E+00  0.121E+00  0.135E+00  0.135E+00
  -1.836  0.360E+00  0.124E+00  0.118E+00  0.118E+00
  -1.736  0.328E+00  0.117E+00  0.106E+00  0.106E+00
  -1.636  0.290E+00  0.101E+00  0.945E-01  0.945E-01
  -1.536  0.249E+00  0.800E-01  0.846E-01  0.846E-01
  -1.436  0.211E+00  0.598E-01  0.757E-01  0.757E-01
  -1.336  0.176E+00  0.449E-01  0.657E-01  0.657E-01
  -1.236  0.139E+00  0.346E-01  0.522E-01  0.522E-01
  -1.136  0.977E-01  0.261E-01  0.358E-01  0.358E-01
  -1.036  0.582E-01  0.175E-01  0.204E-01  0.204E-01
  -0.936  0.285E-01  0.976E-02  0.937E-02  0.937E-02
  -0.836  0.112E-01  0.438E-02  0.343E-02  0.343E-02
  -0.736  0.354E-02  0.155E-02  0.992E-03  0.992E-03
  -0.636  0.882E-03  0.432E-03  0.225E-03  0.225E-03
  -0.536  0.179E-03  0.974E-04  0.406E-04  0.406E-04
  -0.436  0.624E-04  0.436E-04  0.940E-05  0.940E-05
  -0.336  0.193E-03  0.154E-03  0.194E-04  0.194E-04
  -0.236  0.785E-03  0.643E-03  0.711E-04  0.711E-04
  -0.136  0.253E-02  0.212E-02  0.207E-03  0.207E-03
  -0.036  0.639E-02  0.545E-02  0.466E-03  0.466E-03
   0.064  0.126E-01  0.110E-01  0.812E-03  0.812E-03
   0.164  0.196E-01  0.174E-01  0.110E-02  0.110E-02
   0.264  0.239E-01  0.215E-01  0.118E-02  0.118E-02
   0.364  0.232E-01  0.211E-01  0.108E-02  0.108E-02
   0.464  0.194E-01  0.168E-01  0.128E-02  0.128E-02
   0.564  0.194E-01  0.131E-01  0.315E-02  0.315E-02
   0.664  0.350E-01  0.156E-01  0.967E-02  0.967E-02
   0.764  0.799E-01  0.289E-01  0.255E-01  0.255E-01
   0.864  0.162E+00  0.532E-01  0.546E-01  0.546E-01
   0.964  0.274E+00  0.830E-01  0.953E-01  0.953E-01
   1.064  0.387E+00  0.110E+00  0.139E+00  0.139E+00
   1.164  0.477E+00  0.128E+00  0.175E+00  0.175E+00
   1.264  0.533E+00  0.138E+00  0.197E+00  0.197E+00
   1.364  0.561E+00  0.144E+00  0.209E+00  0.209E+00
   1.464  0.570E+00  0.146E+00  0.212E+00  0.212E+00
   1.564  0.570E+00  0.144E+00  0.213E+00  0.213E+00
   1.664  0.572E+00  0.139E+00  0.216E+00  0.216E+00
   1.764  0.587E+00  0.136E+00  0.226E+00  0.226E+00
   1.864  0.611E+00  0.136E+00  0.237E+00  0.237E+00
   1.964  0.626E+00  0.141E+00  0.243E+00  0.243E+00
   2.064  0.614E+00  0.143E+00  0.235E+00  0.236E+00
   2.164  0.562E+00  0.138E+00  0.212E+00  0.212E+00
   2.264  0.467E+00  0.121E+00  0.173E+00  0.173E+00
   2.364  0.342E+00  0.956E-01  0.123E+00  0.124E+00
   2.464  0.218E+00  0.669E-01  0.752E-01  0.757E-01
   2.564  0.120E+00  0.415E-01  0.387E-01  0.393E-01
   2.664  0.568E-01  0.227E-01  0.168E-01  0.173E-01
   2.764  0.233E-01  0.108E-01  0.611E-02  0.646E-02
   2.864  0.820E-02  0.428E-02  0.186E-02  0.206E-02
   2.964  0.243E-02  0.140E-02  0.475E-03  0.555E-03
   3.064  0.591E-03  0.365E-03  0.100E-03  0.126E-03
   3.164  0.116E-03  0.753E-04  0.172E-04  0.234E-04
   3.264  0.180E-04  0.122E-04  0.237E-05  0.353E-05
   3.364  0.221E-05  0.153E-05  0.259E-06  0.424E-06
   3.464  0.211E-06  0.148E-06  0.223E-07  0.401E-07
