# E (eV)  dos(E)    pdos(E)
 -16.578  0.115E-03  0.115E-03
 -16.478  0.969E-03  0.965E-03
 -16.378  0.626E-02  0.624E-02
 -16.278  0.313E-01  0.311E-01
 -16.178  0.121E+00  0.120E+00
 -16.078  0.363E+00  0.362E+00
 -15.978  0.857E+00  0.855E+00
 -15.878  0.162E+01  0.161E+01
 -15.778  0.249E+01  0.248E+01
 -15.678  0.325E+01  0.325E+01
 -15.578  0.375E+01  0.377E+01
 -15.478  0.401E+01  0.406E+01
 -15.378  0.405E+01  0.413E+01
 -15.278  0.392E+01  0.403E+01
 -15.178  0.376E+01  0.386E+01
 -15.078  0.380E+01  0.387E+01
 -14.978  0.426E+01  0.427E+01
 -14.878  0.526E+01  0.518E+01
 -14.778  0.683E+01  0.661E+01
 -14.678  0.885E+01  0.843E+01
 -14.578  0.109E+02  0.103E+02
 -14.478  0.126E+02  0.118E+02
 -14.378  0.138E+02  0.130E+02
 -14.278  0.147E+02  0.141E+02
 -14.178  0.158E+02  0.154E+02
 -14.078  0.171E+02  0.168E+02
 -13.978  0.182E+02  0.181E+02
 -13.878  0.189E+02  0.188E+02
 -13.778  0.193E+02  0.192E+02
 -13.678  0.195E+02  0.195E+02
 -13.578  0.194E+02  0.194E+02
 -13.478  0.188E+02  0.188E+02
 -13.378  0.178E+02  0.178E+02
 -13.278  0.162E+02  0.163E+02
 -13.178  0.140E+02  0.141E+02
 -13.078  0.116E+02  0.116E+02
 -12.978  0.100E+02  0.100E+02
 -12.878  0.957E+01  0.944E+01
 -12.778  0.899E+01  0.881E+01
 -12.678  0.725E+01  0.708E+01
 -12.578  0.466E+01  0.454E+01
 -12.478  0.233E+01  0.227E+01
 -12.378  0.896E+00  0.871E+00
 -12.278  0.264E+00  0.256E+00
 -12.178  0.596E-01  0.578E-01
 -12.078  0.103E-01  0.998E-02
 -11.978  0.136E-02  0.132E-02
 -11.878  0.138E-03  0.133E-03
 -11.778  0.107E-04  0.103E-04
 -11.678  0.630E-06  0.610E-06
 -11.578  0.285E-07  0.276E-07
 -11.478  0.987E-09  0.953E-09
 -11.378  0.258E-10  0.249E-10
 -11.278  0.000E+00  0.000E+00
 -11.178  0.000E+00  0.000E+00
 -11.078  0.000E+00  0.000E+00
 -10.978  0.000E+00  0.000E+00
 -10.878  0.000E+00  0.000E+00
 -10.778  0.000E+00  0.000E+00
 -10.678  0.000E+00  0.000E+00
 -10.578  0.000E+00  0.000E+00
 -10.478  0.000E+00  0.000E+00
 -10.378  0.000E+00  0.000E+00
 -10.278  0.000E+00  0.000E+00
 -10.178  0.000E+00  0.000E+00
 -10.078  0.000E+00  0.000E+00
  -9.978  0.000E+00  0.000E+00
  -9.878  0.000E+00  0.000E+00
  -9.778  0.000E+00  0.000E+00
  -9.678  0.000E+00  0.000E+00
  -9.578  0.000E+00  0.000E+00
  -9.478  0.000E+00  0.000E+00
  -9.378  0.000E+00  0.000E+00
  -9.278  0.000E+00  0.000E+00
  -9.178  0.000E+00  0.000E+00
  -9.078  0.000E+00  0.000E+00
  -8.978  0.000E+00  0.000E+00
  -8.878  0.794E-12  0.818E-12
  -8.778  0.413E-10  0.425E-10
  -8.678  0.135E-08  0.139E-08
  -8.578  0.336E-07  0.346E-07
  -8.478  0.645E-06  0.663E-06
  -8.378  0.949E-05  0.976E-05
  -8.278  0.108E-03  0.110E-03
  -8.178  0.939E-03  0.963E-03
  -8.078  0.633E-02  0.648E-02
  -7.978  0.331E-01  0.338E-01
  -7.878  0.135E+00  0.137E+00
  -7.778  0.435E+00  0.437E+00
  -7.678  0.112E+01  0.111E+01
  -7.578  0.236E+01  0.230E+01
  -7.478  0.423E+01  0.402E+01
  -7.378  0.670E+01  0.625E+01
  -7.278  0.974E+01  0.904E+01
  -7.178  0.133E+02  0.125E+02
  -7.078  0.172E+02  0.166E+02
  -6.978  0.210E+02  0.208E+02
  -6.878  0.238E+02  0.240E+02
  -6.778  0.251E+02  0.257E+02
  -6.678  0.247E+02  0.254E+02
  -6.578  0.231E+02  0.238E+02
  -6.478  0.209E+02  0.216E+02
  -6.378  0.186E+02  0.193E+02
  -6.278  0.163E+02  0.171E+02
  -6.178  0.141E+02  0.149E+02
  -6.078  0.124E+02  0.132E+02
  -5.978  0.116E+02  0.124E+02
  -5.878  0.121E+02  0.127E+02
  -5.778  0.137E+02  0.140E+02
  -5.678  0.161E+02  0.161E+02
  -5.578  0.188E+02  0.183E+02
  -5.478  0.212E+02  0.202E+02
  -5.378  0.226E+02  0.214E+02
  -5.278  0.229E+02  0.215E+02
  -5.178  0.224E+02  0.211E+02
  -5.078  0.222E+02  0.210E+02
  -4.978  0.231E+02  0.219E+02
  -4.878  0.252E+02  0.240E+02
  -4.778  0.276E+02  0.263E+02
  -4.678  0.287E+02  0.277E+02
  -4.578  0.280E+02  0.274E+02
  -4.478  0.255E+02  0.256E+02
  -4.378  0.222E+02  0.228E+02
  -4.278  0.189E+02  0.197E+02
  -4.178  0.163E+02  0.172E+02
  -4.078  0.148E+02  0.157E+02
  -3.978  0.147E+02  0.156E+02
  -3.878  0.156E+02  0.163E+02
  -3.778  0.169E+02  0.174E+02
  -3.678  0.184E+02  0.182E+02
  -3.578  0.198E+02  0.189E+02
  -3.478  0.212E+02  0.196E+02
  -3.378  0.225E+02  0.203E+02
  -3.278  0.233E+02  0.211E+02
  -3.178  0.240E+02  0.219E+02
  -3.078  0.245E+02  0.228E+02
  -2.978  0.247E+02  0.232E+02
  -2.878  0.242E+02  0.229E+02
  -2.778  0.233E+02  0.219E+02
  -2.678  0.224E+02  0.209E+02
  -2.578  0.217E+02  0.203E+02
  -2.478  0.213E+02  0.198E+02
  -2.378  0.207E+02  0.194E+02
  -2.278  0.199E+02  0.188E+02
  -2.178  0.193E+02  0.184E+02
  -2.078  0.192E+02  0.185E+02
  -1.978  0.192E+02  0.187E+02
  -1.878  0.184E+02  0.179E+02
  -1.778  0.157E+02  0.154E+02
  -1.678  0.117E+02  0.115E+02
  -1.578  0.777E+01  0.761E+01
  -1.478  0.497E+01  0.490E+01
  -1.378  0.362E+01  0.359E+01
  -1.278  0.350E+01  0.351E+01
  -1.178  0.444E+01  0.452E+01
  -1.078  0.626E+01  0.644E+01
  -0.978  0.846E+01  0.882E+01
  -0.878  0.104E+02  0.110E+02
  -0.778  0.117E+02  0.124E+02
  -0.678  0.120E+02  0.128E+02
  -0.578  0.112E+02  0.119E+02
  -0.478  0.949E+01  0.998E+01
  -0.378  0.698E+01  0.726E+01
  -0.278  0.430E+01  0.444E+01
  -0.178  0.215E+01  0.221E+01
  -0.078  0.859E+00  0.877E+00
   0.022  0.276E+00  0.281E+00
   0.122  0.112E+00  0.117E+00
   0.222  0.220E+00  0.236E+00
   0.322  0.726E+00  0.777E+00
   0.422  0.202E+01  0.214E+01
   0.522  0.456E+01  0.479E+01
   0.622  0.850E+01  0.886E+01
   0.722  0.134E+02  0.139E+02
   0.822  0.185E+02  0.190E+02
   0.922  0.229E+02  0.235E+02
   1.022  0.263E+02  0.270E+02
   1.122  0.284E+02  0.293E+02
   1.222  0.292E+02  0.302E+02
   1.322  0.287E+02  0.298E+02
   1.422  0.273E+02  0.284E+02
   1.522  0.260E+02  0.271E+02
   1.622  0.254E+02  0.266E+02
   1.722  0.254E+02  0.266E+02
   1.822  0.246E+02  0.258E+02
   1.922  0.221E+02  0.231E+02
   2.022  0.177E+02  0.185E+02
   2.122  0.126E+02  0.130E+02
   2.222  0.784E+01  0.802E+01
   2.322  0.430E+01  0.433E+01
   2.422  0.205E+01  0.204E+01
   2.522  0.843E+00  0.826E+00
   2.622  0.290E+00  0.281E+00
   2.722  0.818E-01  0.787E-01
   2.822  0.185E-01  0.177E-01
   2.922  0.329E-02  0.315E-02
   3.022  0.458E-03  0.439E-03
   3.122  0.495E-04  0.474E-04
