# E (eV)  dos(E)    pdos(E)
 -16.436  0.478E-04  0.476E-04
 -16.336  0.426E-03  0.425E-03
 -16.236  0.295E-02  0.294E-02
 -16.136  0.158E-01  0.158E-01
 -16.036  0.665E-01  0.662E-01
 -15.936  0.219E+00  0.219E+00
 -15.836  0.574E+00  0.572E+00
 -15.736  0.121E+01  0.121E+01
 -15.636  0.208E+01  0.208E+01
 -15.536  0.300E+01  0.300E+01
 -15.436  0.374E+01  0.374E+01
 -15.336  0.418E+01  0.420E+01
 -15.236  0.439E+01  0.444E+01
 -15.136  0.453E+01  0.459E+01
 -15.036  0.470E+01  0.477E+01
 -14.936  0.494E+01  0.500E+01
 -14.836  0.529E+01  0.530E+01
 -14.736  0.579E+01  0.573E+01
 -14.636  0.658E+01  0.640E+01
 -14.536  0.779E+01  0.745E+01
 -14.436  0.940E+01  0.887E+01
 -14.336  0.112E+02  0.105E+02
 -14.236  0.129E+02  0.121E+02
 -14.136  0.144E+02  0.136E+02
 -14.036  0.158E+02  0.152E+02
 -13.936  0.174E+02  0.169E+02
 -13.836  0.193E+02  0.189E+02
 -13.736  0.213E+02  0.211E+02
 -13.636  0.233E+02  0.232E+02
 -13.536  0.248E+02  0.248E+02
 -13.436  0.254E+02  0.254E+02
 -13.336  0.244E+02  0.245E+02
 -13.236  0.215E+02  0.216E+02
 -13.136  0.169E+02  0.170E+02
 -13.036  0.115E+02  0.115E+02
 -12.936  0.657E+01  0.659E+01
 -12.836  0.311E+01  0.313E+01
 -12.736  0.121E+01  0.121E+01
 -12.636  0.378E+00  0.380E+00
 -12.536  0.952E-01  0.956E-01
 -12.436  0.190E-01  0.191E-01
 -12.336  0.301E-02  0.303E-02
 -12.236  0.375E-03  0.376E-03
 -12.136  0.365E-04  0.366E-04
 -12.036  0.277E-05  0.277E-05
 -11.936  0.163E-06  0.163E-06
 -11.836  0.742E-08  0.743E-08
 -11.736  0.260E-09  0.260E-09
 -11.636  0.670E-11  0.669E-11
 -11.536  0.000E+00  0.000E+00
 -11.436  0.000E+00  0.000E+00
 -11.336  0.000E+00  0.000E+00
 -11.236  0.000E+00  0.000E+00
 -11.136  0.000E+00  0.000E+00
 -11.036  0.000E+00  0.000E+00
 -10.936  0.000E+00  0.000E+00
 -10.836  0.000E+00  0.000E+00
 -10.736  0.000E+00  0.000E+00
 -10.636  0.000E+00  0.000E+00
 -10.536  0.000E+00  0.000E+00
 -10.436  0.000E+00  0.000E+00
 -10.336  0.000E+00  0.000E+00
 -10.236  0.000E+00  0.000E+00
 -10.136  0.000E+00  0.000E+00
 -10.036  0.000E+00  0.000E+00
  -9.936  0.000E+00  0.000E+00
  -9.836  0.000E+00  0.000E+00
  -9.736  0.000E+00  0.000E+00
  -9.636  0.000E+00  0.000E+00
  -9.536  0.000E+00  0.000E+00
  -9.436  0.000E+00  0.000E+00
  -9.336  0.000E+00  0.000E+00
  -9.236  0.000E+00  0.000E+00
  -9.136  0.000E+00  0.000E+00
  -9.036  0.000E+00  0.000E+00
  -8.936  0.000E+00  0.000E+00
  -8.836  0.000E+00  0.000E+00
  -8.736  0.223E-11  0.218E-11
  -8.636  0.102E-09  0.999E-10
  -8.536  0.315E-08  0.308E-08
  -8.436  0.743E-07  0.727E-07
  -8.336  0.135E-05  0.132E-05
  -8.236  0.188E-04  0.184E-04
  -8.136  0.202E-03  0.197E-03
  -8.036  0.167E-02  0.163E-02
  -7.936  0.106E-01  0.104E-01
  -7.836  0.526E-01  0.513E-01
  -7.736  0.203E+00  0.198E+00
  -7.636  0.614E+00  0.598E+00
  -7.536  0.149E+01  0.145E+01
  -7.436  0.294E+01  0.287E+01
  -7.336  0.496E+01  0.484E+01
  -7.236  0.744E+01  0.733E+01
  -7.136  0.104E+02  0.104E+02
  -7.036  0.139E+02  0.141E+02
  -6.936  0.179E+02  0.183E+02
  -6.836  0.218E+02  0.225E+02
  -6.736  0.251E+02  0.258E+02
  -6.636  0.269E+02  0.276E+02
  -6.536  0.267E+02  0.273E+02
  -6.436  0.245E+02  0.249E+02
  -6.336  0.208E+02  0.212E+02
  -6.236  0.169E+02  0.173E+02
  -6.136  0.137E+02  0.142E+02
  -6.036  0.118E+02  0.124E+02
  -5.936  0.107E+02  0.113E+02
  -5.836  0.997E+01  0.105E+02
  -5.736  0.978E+01  0.102E+02
  -5.636  0.109E+02  0.110E+02
  -5.536  0.139E+02  0.135E+02
  -5.436  0.182E+02  0.171E+02
  -5.336  0.223E+02  0.207E+02
  -5.236  0.250E+02  0.229E+02
  -5.136  0.256E+02  0.234E+02
  -5.036  0.248E+02  0.228E+02
  -4.936  0.238E+02  0.222E+02
  -4.836  0.234E+02  0.222E+02
  -4.736  0.239E+02  0.231E+02
  -4.636  0.249E+02  0.245E+02
  -4.536  0.255E+02  0.255E+02
  -4.436  0.252E+02  0.255E+02
  -4.336  0.239E+02  0.243E+02
  -4.236  0.221E+02  0.227E+02
  -4.136  0.205E+02  0.210E+02
  -4.036  0.191E+02  0.196E+02
  -3.936  0.178E+02  0.182E+02
  -3.836  0.166E+02  0.170E+02
  -3.736  0.160E+02  0.163E+02
  -3.636  0.161E+02  0.163E+02
  -3.536  0.170E+02  0.171E+02
  -3.436  0.187E+02  0.185E+02
  -3.336  0.212E+02  0.205E+02
  -3.236  0.242E+02  0.228E+02
  -3.136  0.267E+02  0.247E+02
  -3.036  0.279E+02  0.255E+02
  -2.936  0.274E+02  0.250E+02
  -2.836  0.257E+02  0.236E+02
  -2.736  0.237E+02  0.219E+02
  -2.636  0.216E+02  0.201E+02
  -2.536  0.196E+02  0.184E+02
  -2.436  0.183E+02  0.172E+02
  -2.336  0.180E+02  0.170E+02
  -2.236  0.188E+02  0.178E+02
  -2.136  0.204E+02  0.194E+02
  -2.036  0.217E+02  0.208E+02
  -1.936  0.222E+02  0.213E+02
  -1.836  0.216E+02  0.208E+02
  -1.736  0.203E+02  0.196E+02
  -1.636  0.187E+02  0.179E+02
  -1.536  0.168E+02  0.162E+02
  -1.436  0.149E+02  0.143E+02
  -1.336  0.126E+02  0.121E+02
  -1.236  0.986E+01  0.949E+01
  -1.136  0.689E+01  0.659E+01
  -1.036  0.413E+01  0.390E+01
  -0.936  0.205E+01  0.192E+01
  -0.836  0.831E+00  0.769E+00
  -0.736  0.269E+00  0.247E+00
  -0.636  0.698E-01  0.634E-01
  -0.536  0.174E-01  0.163E-01
  -0.436  0.238E-01  0.253E-01
  -0.336  0.108E+00  0.117E+00
  -0.236  0.417E+00  0.448E+00
  -0.136  0.124E+01  0.133E+01
  -0.036  0.287E+01  0.307E+01
   0.064  0.515E+01  0.547E+01
   0.164  0.720E+01  0.760E+01
   0.264  0.786E+01  0.824E+01
   0.364  0.674E+01  0.702E+01
   0.464  0.463E+01  0.478E+01
   0.564  0.279E+01  0.286E+01
   0.664  0.227E+01  0.230E+01
   0.764  0.359E+01  0.363E+01
   0.864  0.682E+01  0.690E+01
   0.964  0.114E+02  0.115E+02
   1.064  0.161E+02  0.162E+02
   1.164  0.198E+02  0.200E+02
   1.264  0.223E+02  0.227E+02
   1.364  0.242E+02  0.247E+02
   1.464  0.260E+02  0.267E+02
   1.564  0.279E+02  0.289E+02
   1.664  0.299E+02  0.312E+02
   1.764  0.317E+02  0.332E+02
   1.864  0.327E+02  0.343E+02
   1.964  0.326E+02  0.341E+02
   2.064  0.309E+02  0.322E+02
   2.164  0.273E+02  0.284E+02
   2.264  0.220E+02  0.228E+02
   2.364  0.157E+02  0.162E+02
   2.464  0.960E+01  0.987E+01
   2.564  0.497E+01  0.510E+01
   2.664  0.215E+01  0.221E+01
   2.764  0.778E+00  0.804E+00
   2.864  0.236E+00  0.245E+00
   2.964  0.600E-01  0.630E-01
   3.064  0.128E-01  0.136E-01
   3.164  0.226E-02  0.242E-02
   3.264  0.328E-03  0.353E-03
   3.364  0.383E-04  0.414E-04
   3.464  0.356E-05  0.385E-05
