# E (eV)   ldos(E)   pdos(E)   
 -16.578  0.667E-05  0.667E-05
 -16.478  0.560E-04  0.560E-04
 -16.378  0.361E-03  0.361E-03
 -16.278  0.179E-02  0.179E-02
 -16.178  0.690E-02  0.690E-02
 -16.078  0.206E-01  0.206E-01
 -15.978  0.481E-01  0.481E-01
 -15.878  0.891E-01  0.891E-01
 -15.778  0.134E+00  0.134E+00
 -15.678  0.168E+00  0.168E+00
 -15.578  0.185E+00  0.185E+00
 -15.478  0.188E+00  0.188E+00
 -15.378  0.181E+00  0.181E+00
 -15.278  0.165E+00  0.165E+00
 -15.178  0.139E+00  0.139E+00
 -15.078  0.109E+00  0.109E+00
 -14.978  0.849E-01  0.849E-01
 -14.878  0.710E-01  0.710E-01
 -14.778  0.680E-01  0.680E-01
 -14.678  0.731E-01  0.731E-01
 -14.578  0.806E-01  0.806E-01
 -14.478  0.827E-01  0.827E-01
 -14.378  0.744E-01  0.744E-01
 -14.278  0.574E-01  0.574E-01
 -14.178  0.383E-01  0.383E-01
 -14.078  0.228E-01  0.228E-01
 -13.978  0.132E-01  0.132E-01
 -13.878  0.857E-02  0.857E-02
 -13.778  0.677E-02  0.677E-02
 -13.678  0.596E-02  0.596E-02
 -13.578  0.542E-02  0.542E-02
 -13.478  0.549E-02  0.549E-02
 -13.378  0.645E-02  0.645E-02
 -13.278  0.759E-02  0.759E-02
 -13.178  0.765E-02  0.765E-02
 -13.078  0.613E-02  0.613E-02
 -12.978  0.381E-02  0.381E-02
 -12.878  0.183E-02  0.183E-02
 -12.778  0.676E-03  0.676E-03
 -12.678  0.195E-03  0.195E-03
 -12.578  0.454E-04  0.454E-04
 -12.478  0.917E-05  0.917E-05
 -12.378  0.181E-05  0.181E-05
 -12.278  0.364E-06  0.364E-06
 -12.178  0.694E-07  0.694E-07
 -12.078  0.112E-07  0.112E-07
 -11.978  0.144E-08  0.144E-08
 -11.878  0.144E-09  0.144E-09
 -11.778  0.111E-10  0.111E-10
 -11.678  0.654E-12  0.654E-12
 -11.578  0.295E-13  0.295E-13
 -11.478  0.102E-14  0.102E-14
 -11.378  0.269E-16  0.269E-16
 -11.278  0.000E+00  0.000E+00
 -11.178  0.000E+00  0.000E+00
 -11.078  0.000E+00  0.000E+00
 -10.978  0.000E+00  0.000E+00
 -10.878  0.000E+00  0.000E+00
 -10.778  0.000E+00  0.000E+00
 -10.678  0.000E+00  0.000E+00
 -10.578  0.000E+00  0.000E+00
 -10.478  0.000E+00  0.000E+00
 -10.378  0.000E+00  0.000E+00
 -10.278  0.000E+00  0.000E+00
 -10.178  0.000E+00  0.000E+00
 -10.078  0.000E+00  0.000E+00
  -9.978  0.000E+00  0.000E+00
  -9.878  0.000E+00  0.000E+00
  -9.778  0.000E+00  0.000E+00
  -9.678  0.000E+00  0.000E+00
  -9.578  0.000E+00  0.000E+00
  -9.478  0.000E+00  0.000E+00
  -9.378  0.000E+00  0.000E+00
  -9.278  0.000E+00  0.000E+00
  -9.178  0.000E+00  0.000E+00
  -9.078  0.000E+00  0.000E+00
  -8.978  0.000E+00  0.000E+00
  -8.878  0.904E-14  0.904E-14
  -8.778  0.494E-12  0.494E-12
  -8.678  0.162E-10  0.162E-10
  -8.578  0.408E-09  0.408E-09
  -8.478  0.787E-08  0.787E-08
  -8.378  0.117E-06  0.117E-06
  -8.278  0.133E-05  0.133E-05
  -8.178  0.117E-04  0.117E-04
  -8.078  0.792E-04  0.792E-04
  -7.978  0.414E-03  0.414E-03
  -7.878  0.168E-02  0.168E-02
  -7.778  0.527E-02  0.527E-02
  -7.678  0.129E-01  0.129E-01
  -7.578  0.249E-01  0.249E-01
  -7.478  0.381E-01  0.381E-01
  -7.378  0.471E-01  0.471E-01
  -7.278  0.483E-01  0.483E-01
  -7.178  0.435E-01  0.435E-01
  -7.078  0.373E-01  0.373E-01
  -6.978  0.328E-01  0.328E-01
  -6.878  0.298E-01  0.298E-01
  -6.778  0.263E-01  0.263E-01
  -6.678  0.217E-01  0.217E-01
  -6.578  0.166E-01  0.166E-01
  -6.478  0.125E-01  0.125E-01
  -6.378  0.105E-01  0.105E-01
  -6.278  0.106E-01  0.106E-01
  -6.178  0.120E-01  0.120E-01
  -6.078  0.133E-01  0.133E-01
  -5.978  0.140E-01  0.140E-01
  -5.878  0.147E-01  0.147E-01
  -5.778  0.170E-01  0.170E-01
  -5.678  0.222E-01  0.222E-01
  -5.578  0.304E-01  0.304E-01
  -5.478  0.396E-01  0.396E-01
  -5.378  0.458E-01  0.458E-01
  -5.278  0.456E-01  0.456E-01
  -5.178  0.390E-01  0.390E-01
  -5.078  0.295E-01  0.295E-01
  -4.978  0.209E-01  0.209E-01
  -4.878  0.150E-01  0.150E-01
  -4.778  0.114E-01  0.114E-01
  -4.678  0.883E-02  0.883E-02
  -4.578  0.686E-02  0.686E-02
  -4.478  0.547E-02  0.547E-02
  -4.378  0.471E-02  0.471E-02
  -4.278  0.437E-02  0.437E-02
  -4.178  0.421E-02  0.421E-02
  -4.078  0.403E-02  0.403E-02
  -3.978  0.370E-02  0.370E-02
  -3.878  0.316E-02  0.316E-02
  -3.778  0.249E-02  0.249E-02
  -3.678  0.186E-02  0.186E-02
  -3.578  0.140E-02  0.140E-02
  -3.478  0.112E-02  0.112E-02
  -3.378  0.978E-03  0.978E-03
  -3.278  0.932E-03  0.932E-03
  -3.178  0.935E-03  0.935E-03
  -3.078  0.946E-03  0.946E-03
  -2.978  0.936E-03  0.936E-03
  -2.878  0.904E-03  0.904E-03
  -2.778  0.878E-03  0.878E-03
  -2.678  0.882E-03  0.882E-03
  -2.578  0.895E-03  0.895E-03
  -2.478  0.880E-03  0.880E-03
  -2.378  0.878E-03  0.878E-03
  -2.278  0.110E-02  0.110E-02
  -2.178  0.185E-02  0.185E-02
  -2.078  0.326E-02  0.326E-02
  -1.978  0.490E-02  0.490E-02
  -1.878  0.587E-02  0.587E-02
  -1.778  0.550E-02  0.550E-02
  -1.678  0.404E-02  0.404E-02
  -1.578  0.235E-02  0.235E-02
  -1.478  0.113E-02  0.113E-02
  -1.378  0.543E-03  0.543E-03
  -1.278  0.460E-03  0.460E-03
  -1.178  0.816E-03  0.816E-03
  -1.078  0.165E-02  0.165E-02
  -0.978  0.297E-02  0.297E-02
  -0.878  0.450E-02  0.450E-02
  -0.778  0.564E-02  0.564E-02
  -0.678  0.574E-02  0.574E-02
  -0.578  0.469E-02  0.469E-02
  -0.478  0.304E-02  0.304E-02
  -0.378  0.156E-02  0.156E-02
  -0.278  0.638E-03  0.638E-03
  -0.178  0.208E-03  0.208E-03
  -0.078  0.559E-04  0.559E-04
   0.022  0.225E-04  0.225E-04
   0.122  0.655E-04  0.655E-04
   0.222  0.287E-03  0.287E-03
   0.322  0.101E-02  0.101E-02
   0.422  0.282E-02  0.282E-02
   0.522  0.628E-02  0.628E-02
   0.622  0.114E-01  0.114E-01
   0.722  0.174E-01  0.174E-01
   0.822  0.231E-01  0.231E-01
   0.922  0.280E-01  0.280E-01
   1.022  0.315E-01  0.315E-01
   1.122  0.333E-01  0.333E-01
   1.222  0.329E-01  0.329E-01
   1.322  0.309E-01  0.309E-01
   1.422  0.285E-01  0.285E-01
   1.522  0.266E-01  0.266E-01
   1.622  0.246E-01  0.246E-01
   1.722  0.216E-01  0.216E-01
   1.822  0.168E-01  0.168E-01
   1.922  0.112E-01  0.112E-01
   2.022  0.624E-02  0.624E-02
   2.122  0.290E-02  0.290E-02
   2.222  0.113E-02  0.113E-02
   2.322  0.375E-03  0.375E-03
   2.422  0.106E-03  0.106E-03
   2.522  0.253E-04  0.253E-04
   2.622  0.509E-05  0.509E-05
   2.722  0.841E-06  0.841E-06
   2.822  0.113E-06  0.113E-06
   2.922  0.124E-07  0.124E-07
   3.022  0.111E-08  0.111E-08
   3.122  0.821E-10  0.821E-10
