# E (eV)   ldos(E)   pdos(E)    pdos(E)    pdos(E)   
 -16.578  0.289E-06  0.451E-09  0.901E-07  0.198E-06
 -16.478  0.259E-05  0.386E-08  0.854E-06  0.173E-05
 -16.378  0.181E-04  0.262E-07  0.634E-05  0.117E-04
 -16.278  0.989E-04  0.152E-06  0.371E-04  0.616E-04
 -16.178  0.430E-03  0.857E-06  0.174E-03  0.255E-03
 -16.078  0.150E-02  0.525E-05  0.656E-03  0.840E-03
 -15.978  0.429E-02  0.326E-04  0.203E-02  0.223E-02
 -15.878  0.102E-01  0.178E-03  0.519E-02  0.487E-02
 -15.778  0.208E-01  0.780E-03  0.111E-01  0.898E-02
 -15.678  0.367E-01  0.268E-02  0.198E-01  0.142E-01
 -15.578  0.562E-01  0.710E-02  0.294E-01  0.197E-01
 -15.478  0.751E-01  0.145E-01  0.365E-01  0.241E-01
 -15.378  0.879E-01  0.231E-01  0.386E-01  0.263E-01
 -15.278  0.916E-01  0.287E-01  0.366E-01  0.264E-01
 -15.178  0.884E-01  0.282E-01  0.345E-01  0.256E-01
 -15.078  0.847E-01  0.230E-01  0.362E-01  0.256E-01
 -14.978  0.875E-01  0.176E-01  0.431E-01  0.267E-01
 -14.878  0.101E+00  0.175E-01  0.550E-01  0.288E-01
 -14.778  0.128E+00  0.265E-01  0.704E-01  0.314E-01
 -14.678  0.167E+00  0.454E-01  0.875E-01  0.341E-01
 -14.578  0.212E+00  0.721E-01  0.104E+00  0.361E-01
 -14.478  0.259E+00  0.103E+00  0.119E+00  0.368E-01
 -14.378  0.307E+00  0.137E+00  0.133E+00  0.368E-01
 -14.278  0.360E+00  0.176E+00  0.146E+00  0.380E-01
 -14.178  0.414E+00  0.217E+00  0.155E+00  0.420E-01
 -14.078  0.457E+00  0.251E+00  0.157E+00  0.497E-01
 -13.978  0.472E+00  0.264E+00  0.145E+00  0.632E-01
 -13.878  0.456E+00  0.253E+00  0.119E+00  0.845E-01
 -13.778  0.422E+00  0.226E+00  0.847E-01  0.112E+00
 -13.678  0.384E+00  0.192E+00  0.532E-01  0.139E+00
 -13.578  0.348E+00  0.155E+00  0.317E-01  0.161E+00
 -13.478  0.314E+00  0.115E+00  0.205E-01  0.179E+00
 -13.378  0.287E+00  0.755E-01  0.163E-01  0.196E+00
 -13.278  0.262E+00  0.474E-01  0.149E-01  0.200E+00
 -13.178  0.227E+00  0.355E-01  0.133E-01  0.178E+00
 -13.078  0.180E+00  0.394E-01  0.102E-01  0.131E+00
 -12.978  0.137E+00  0.537E-01  0.623E-02  0.767E-01
 -12.878  0.106E+00  0.678E-01  0.300E-02  0.357E-01
 -12.778  0.843E-01  0.698E-01  0.113E-02  0.133E-01
 -12.678  0.607E-01  0.562E-01  0.335E-03  0.420E-02
 -12.578  0.362E-01  0.349E-01  0.823E-04  0.124E-02
 -12.478  0.170E-01  0.166E-01  0.182E-04  0.373E-03
 -12.378  0.619E-02  0.607E-02  0.402E-05  0.112E-03
 -12.278  0.173E-02  0.170E-02  0.888E-06  0.299E-04
 -12.178  0.371E-03  0.365E-03  0.177E-06  0.651E-05
 -12.078  0.610E-04  0.599E-04  0.291E-07  0.111E-05
 -11.978  0.769E-05  0.754E-05  0.376E-08  0.146E-06
 -11.878  0.741E-06  0.726E-06  0.375E-09  0.147E-07
 -11.778  0.547E-07  0.536E-07  0.288E-10  0.113E-08
 -11.678  0.309E-08  0.303E-08  0.169E-11  0.667E-10
 -11.578  0.134E-09  0.131E-09  0.758E-13  0.301E-11
 -11.478  0.444E-11  0.433E-11  0.260E-14  0.104E-12
 -11.378  0.108E-12  0.105E-12  0.674E-16  0.270E-14
 -11.278  0.000E+00  0.000E+00  0.000E+00  0.000E+00
 -11.178  0.000E+00  0.000E+00  0.000E+00  0.000E+00
 -11.078  0.000E+00  0.000E+00  0.000E+00  0.000E+00
 -10.978  0.000E+00  0.000E+00  0.000E+00  0.000E+00
 -10.878  0.000E+00  0.000E+00  0.000E+00  0.000E+00
 -10.778  0.000E+00  0.000E+00  0.000E+00  0.000E+00
 -10.678  0.000E+00  0.000E+00  0.000E+00  0.000E+00
 -10.578  0.000E+00  0.000E+00  0.000E+00  0.000E+00
 -10.478  0.000E+00  0.000E+00  0.000E+00  0.000E+00
 -10.378  0.000E+00  0.000E+00  0.000E+00  0.000E+00
 -10.278  0.000E+00  0.000E+00  0.000E+00  0.000E+00
 -10.178  0.000E+00  0.000E+00  0.000E+00  0.000E+00
 -10.078  0.000E+00  0.000E+00  0.000E+00  0.000E+00
  -9.978  0.000E+00  0.000E+00  0.000E+00  0.000E+00
  -9.878  0.000E+00  0.000E+00  0.000E+00  0.000E+00
  -9.778  0.000E+00  0.000E+00  0.000E+00  0.000E+00
  -9.678  0.000E+00  0.000E+00  0.000E+00  0.000E+00
  -9.578  0.000E+00  0.000E+00  0.000E+00  0.000E+00
  -9.478  0.000E+00  0.000E+00  0.000E+00  0.000E+00
  -9.378  0.000E+00  0.000E+00  0.000E+00  0.000E+00
  -9.278  0.000E+00  0.000E+00  0.000E+00  0.000E+00
  -9.178  0.000E+00  0.000E+00  0.000E+00  0.000E+00
  -9.078  0.000E+00  0.000E+00  0.000E+00  0.000E+00
  -8.978  0.000E+00  0.000E+00  0.000E+00  0.000E+00
  -8.878  0.114E-13  0.311E-14  0.347E-14  0.487E-14
  -8.778  0.609E-12  0.175E-12  0.166E-12  0.269E-12
  -8.678  0.199E-10  0.576E-11  0.532E-11  0.883E-11
  -8.578  0.498E-09  0.145E-09  0.131E-09  0.222E-09
  -8.478  0.957E-08  0.281E-08  0.247E-08  0.429E-08
  -8.378  0.141E-06  0.419E-07  0.356E-07  0.637E-07
  -8.278  0.160E-05  0.479E-06  0.395E-06  0.727E-06
  -8.178  0.140E-04  0.422E-05  0.336E-05  0.638E-05
  -8.078  0.938E-04  0.286E-04  0.220E-04  0.432E-04
  -7.978  0.487E-03  0.150E-03  0.111E-03  0.225E-03
  -7.878  0.195E-02  0.608E-03  0.437E-03  0.909E-03
  -7.778  0.610E-02  0.191E-02  0.134E-02  0.284E-02
  -7.678  0.149E-01  0.470E-02  0.324E-02  0.694E-02
  -7.578  0.288E-01  0.907E-02  0.634E-02  0.133E-01
  -7.478  0.448E-01  0.139E-01  0.103E-01  0.206E-01
  -7.378  0.582E-01  0.173E-01  0.146E-01  0.264E-01
  -7.278  0.664E-01  0.182E-01  0.186E-01  0.296E-01
  -7.178  0.712E-01  0.180E-01  0.224E-01  0.309E-01
  -7.078  0.765E-01  0.190E-01  0.261E-01  0.315E-01
  -6.978  0.840E-01  0.228E-01  0.299E-01  0.313E-01
  -6.878  0.920E-01  0.288E-01  0.336E-01  0.297E-01
  -6.778  0.970E-01  0.350E-01  0.358E-01  0.262E-01
  -6.678  0.958E-01  0.396E-01  0.348E-01  0.213E-01
  -6.578  0.879E-01  0.416E-01  0.300E-01  0.163E-01
  -6.478  0.754E-01  0.406E-01  0.224E-01  0.124E-01
  -6.378  0.617E-01  0.366E-01  0.147E-01  0.104E-01
  -6.278  0.496E-01  0.307E-01  0.875E-02  0.101E-01
  -6.178  0.408E-01  0.248E-01  0.530E-02  0.107E-01
  -6.078  0.366E-01  0.210E-01  0.408E-02  0.116E-01
  -5.978  0.378E-01  0.200E-01  0.468E-02  0.131E-01
  -5.878  0.439E-01  0.213E-01  0.694E-02  0.157E-01
  -5.778  0.535E-01  0.234E-01  0.113E-01  0.188E-01
  -5.678  0.655E-01  0.251E-01  0.188E-01  0.216E-01
  -5.578  0.796E-01  0.260E-01  0.303E-01  0.234E-01
  -5.478  0.948E-01  0.265E-01  0.439E-01  0.244E-01
  -5.378  0.107E+00  0.273E-01  0.553E-01  0.249E-01
  -5.278  0.113E+00  0.284E-01  0.599E-01  0.244E-01
  -5.178  0.110E+00  0.301E-01  0.569E-01  0.227E-01
  -5.078  0.103E+00  0.336E-01  0.488E-01  0.207E-01
  -4.978  0.997E-01  0.399E-01  0.397E-01  0.201E-01
  -4.878  0.103E+00  0.483E-01  0.324E-01  0.219E-01
  -4.778  0.108E+00  0.554E-01  0.277E-01  0.252E-01
  -4.678  0.110E+00  0.582E-01  0.245E-01  0.277E-01
  -4.578  0.105E+00  0.557E-01  0.214E-01  0.277E-01
  -4.478  0.926E-01  0.493E-01  0.180E-01  0.253E-01
  -4.378  0.774E-01  0.407E-01  0.153E-01  0.215E-01
  -4.278  0.628E-01  0.312E-01  0.144E-01  0.172E-01
  -4.178  0.515E-01  0.224E-01  0.156E-01  0.135E-01
  -4.078  0.448E-01  0.157E-01  0.178E-01  0.112E-01
  -3.978  0.423E-01  0.121E-01  0.196E-01  0.106E-01
  -3.878  0.423E-01  0.116E-01  0.197E-01  0.111E-01
  -3.778  0.434E-01  0.133E-01  0.179E-01  0.121E-01
  -3.678  0.448E-01  0.161E-01  0.153E-01  0.134E-01
  -3.578  0.470E-01  0.186E-01  0.133E-01  0.151E-01
  -3.478  0.500E-01  0.202E-01  0.128E-01  0.170E-01
  -3.378  0.536E-01  0.207E-01  0.136E-01  0.193E-01
  -3.278  0.574E-01  0.205E-01  0.151E-01  0.218E-01
  -3.178  0.614E-01  0.203E-01  0.168E-01  0.243E-01
  -3.078  0.653E-01  0.202E-01  0.185E-01  0.266E-01
  -2.978  0.685E-01  0.200E-01  0.200E-01  0.285E-01
  -2.878  0.702E-01  0.194E-01  0.206E-01  0.301E-01
  -2.778  0.699E-01  0.185E-01  0.202E-01  0.312E-01
  -2.678  0.676E-01  0.174E-01  0.190E-01  0.312E-01
  -2.578  0.633E-01  0.164E-01  0.175E-01  0.293E-01
  -2.478  0.570E-01  0.153E-01  0.163E-01  0.255E-01
  -2.378  0.496E-01  0.136E-01  0.154E-01  0.206E-01
  -2.278  0.429E-01  0.114E-01  0.152E-01  0.163E-01
  -2.178  0.396E-01  0.943E-02  0.159E-01  0.142E-01
  -2.078  0.408E-01  0.875E-02  0.175E-01  0.146E-01
  -1.978  0.447E-01  0.928E-02  0.189E-01  0.165E-01
  -1.878  0.464E-01  0.976E-02  0.187E-01  0.179E-01
  -1.778  0.417E-01  0.892E-02  0.159E-01  0.169E-01
  -1.678  0.312E-01  0.677E-02  0.111E-01  0.133E-01
  -1.578  0.194E-01  0.432E-02  0.637E-02  0.867E-02
  -1.478  0.104E-01  0.249E-02  0.306E-02  0.485E-02
  -1.378  0.568E-02  0.145E-02  0.162E-02  0.262E-02
  -1.278  0.461E-02  0.939E-03  0.178E-02  0.189E-02
  -1.178  0.626E-02  0.775E-03  0.318E-02  0.231E-02
  -1.078  0.990E-02  0.944E-03  0.538E-02  0.358E-02
  -0.978  0.148E-01  0.159E-02  0.796E-02  0.523E-02
  -0.878  0.203E-01  0.282E-02  0.107E-01  0.680E-02
  -0.778  0.261E-01  0.436E-02  0.138E-01  0.794E-02
  -0.678  0.309E-01  0.547E-02  0.169E-01  0.850E-02
  -0.578  0.328E-01  0.542E-02  0.190E-01  0.832E-02
  -0.478  0.302E-01  0.422E-02  0.187E-01  0.726E-02
  -0.378  0.234E-01  0.258E-02  0.154E-01  0.544E-02
  -0.278  0.148E-01  0.125E-02  0.102E-01  0.337E-02
  -0.178  0.755E-02  0.482E-03  0.538E-02  0.168E-02
  -0.078  0.303E-02  0.151E-03  0.222E-02  0.664E-03
   0.022  0.972E-03  0.549E-04  0.710E-03  0.207E-03
   0.122  0.368E-03  0.106E-03  0.193E-03  0.694E-04
   0.222  0.652E-03  0.413E-03  0.128E-03  0.111E-03
   0.322  0.211E-02  0.135E-02  0.369E-03  0.392E-03
   0.422  0.574E-02  0.345E-02  0.110E-02  0.119E-02
   0.522  0.124E-01  0.694E-02  0.261E-02  0.289E-02
   0.622  0.216E-01  0.110E-01  0.491E-02  0.574E-02
   0.722  0.308E-01  0.139E-01  0.742E-02  0.951E-02
   0.822  0.369E-01  0.142E-01  0.920E-02  0.135E-01
   0.922  0.388E-01  0.122E-01  0.969E-02  0.170E-01
   1.022  0.380E-01  0.931E-02  0.914E-02  0.195E-01
   1.122  0.363E-01  0.696E-02  0.820E-02  0.212E-01
   1.222  0.349E-01  0.563E-02  0.737E-02  0.219E-01
   1.322  0.333E-01  0.517E-02  0.683E-02  0.213E-01
   1.422  0.311E-01  0.529E-02  0.674E-02  0.191E-01
   1.522  0.291E-01  0.576E-02  0.729E-02  0.160E-01
   1.622  0.282E-01  0.642E-02  0.854E-02  0.133E-01
   1.722  0.287E-01  0.709E-02  0.100E-01  0.115E-01
   1.822  0.288E-01  0.746E-02  0.109E-01  0.105E-01
   1.922  0.267E-01  0.713E-02  0.104E-01  0.918E-02
   2.022  0.218E-01  0.589E-02  0.864E-02  0.724E-02
   2.122  0.153E-01  0.406E-02  0.627E-02  0.493E-02
   2.222  0.915E-02  0.229E-02  0.402E-02  0.284E-02
   2.322  0.471E-02  0.106E-02  0.229E-02  0.137E-02
   2.422  0.211E-02  0.401E-03  0.115E-02  0.556E-03
   2.522  0.817E-03  0.129E-03  0.499E-03  0.190E-03
   2.622  0.271E-03  0.356E-04  0.181E-03  0.550E-04
   2.722  0.753E-04  0.861E-05  0.532E-04  0.135E-04
   2.822  0.170E-04  0.179E-05  0.125E-04  0.275E-05
   2.922  0.306E-05  0.310E-06  0.229E-05  0.460E-06
   3.022  0.432E-06  0.433E-07  0.327E-06  0.617E-07
   3.122  0.473E-07  0.477E-08  0.360E-07  0.655E-08
