# E (eV)   ldos(E)   pdos(E)    pdos(E)    pdos(E)    pdos(E)    pdos(E)    pdos(E)    pdos(E)   
 -16.578  0.175E-07  0.931E-10  0.381E-10  0.315E-09  0.437E-10  0.238E-12  0.213E-10  0.170E-07
 -16.478  0.148E-06  0.783E-09  0.358E-09  0.268E-08  0.367E-09  0.222E-11  0.179E-09  0.143E-06
 -16.378  0.955E-06  0.507E-08  0.262E-08  0.176E-07  0.238E-08  0.162E-10  0.116E-08  0.926E-06
 -16.278  0.477E-05  0.253E-07  0.150E-07  0.896E-07  0.119E-07  0.923E-10  0.579E-08  0.463E-05
 -16.178  0.185E-04  0.978E-07  0.680E-07  0.356E-06  0.459E-07  0.416E-09  0.223E-07  0.179E-04
 -16.078  0.558E-04  0.295E-06  0.247E-06  0.111E-05  0.138E-06  0.150E-08  0.671E-07  0.539E-04
 -15.978  0.132E-03  0.698E-06  0.738E-06  0.278E-05  0.328E-06  0.447E-08  0.158E-06  0.128E-03
 -15.878  0.252E-03  0.132E-05  0.190E-05  0.567E-05  0.622E-06  0.115E-07  0.296E-06  0.242E-03
 -15.778  0.391E-03  0.204E-05  0.446E-05  0.972E-05  0.963E-06  0.269E-07  0.451E-06  0.373E-03
 -15.678  0.510E-03  0.264E-05  0.989E-05  0.143E-04  0.125E-05  0.600E-07  0.578E-06  0.482E-03
 -15.578  0.578E-03  0.293E-05  0.204E-04  0.185E-04  0.141E-05  0.125E-06  0.652E-06  0.534E-03
 -15.478  0.581E-03  0.285E-05  0.372E-04  0.211E-04  0.140E-05  0.231E-06  0.680E-06  0.517E-03
 -15.378  0.526E-03  0.247E-05  0.579E-04  0.213E-04  0.129E-05  0.368E-06  0.683E-06  0.442E-03
 -15.278  0.448E-03  0.206E-05  0.762E-04  0.202E-04  0.120E-05  0.505E-06  0.687E-06  0.347E-03
 -15.178  0.399E-03  0.235E-05  0.878E-04  0.213E-04  0.139E-05  0.639E-06  0.734E-06  0.285E-03
 -15.078  0.425E-03  0.534E-05  0.944E-04  0.289E-04  0.237E-05  0.876E-06  0.856E-06  0.292E-03
 -14.978  0.545E-03  0.165E-04  0.102E-03  0.465E-04  0.542E-05  0.165E-05  0.104E-05  0.371E-03
 -14.878  0.749E-03  0.470E-04  0.118E-03  0.746E-04  0.135E-04  0.442E-05  0.121E-05  0.491E-03
 -14.778  0.102E-02  0.110E-03  0.144E-03  0.108E-03  0.312E-04  0.135E-04  0.132E-05  0.609E-03
 -14.678  0.131E-02  0.206E-03  0.185E-03  0.135E-03  0.613E-04  0.384E-04  0.135E-05  0.687E-03
 -14.578  0.159E-02  0.312E-03  0.241E-03  0.145E-03  0.100E-03  0.944E-04  0.138E-05  0.699E-03
 -14.478  0.183E-02  0.385E-03  0.318E-03  0.136E-03  0.138E-03  0.194E-03  0.152E-05  0.652E-03
 -14.378  0.203E-02  0.405E-03  0.424E-03  0.117E-03  0.169E-03  0.334E-03  0.192E-05  0.581E-03
 -14.278  0.227E-02  0.398E-03  0.559E-03  0.104E-03  0.205E-03  0.493E-03  0.265E-05  0.513E-03
 -14.178  0.260E-02  0.419E-03  0.698E-03  0.106E-03  0.270E-03  0.655E-03  0.365E-05  0.445E-03
 -14.078  0.299E-02  0.490E-03  0.786E-03  0.132E-03  0.368E-03  0.845E-03  0.466E-05  0.362E-03
 -13.978  0.340E-02  0.576E-03  0.768E-03  0.196E-03  0.464E-03  0.112E-02  0.524E-05  0.264E-03
 -13.878  0.381E-02  0.616E-03  0.639E-03  0.308E-03  0.509E-03  0.156E-02  0.509E-05  0.173E-03
 -13.778  0.426E-02  0.578E-03  0.455E-03  0.455E-03  0.500E-03  0.216E-02  0.436E-05  0.111E-03
 -13.678  0.471E-02  0.483E-03  0.294E-03  0.605E-03  0.513E-03  0.272E-02  0.360E-05  0.843E-04
 -13.578  0.499E-02  0.363E-03  0.199E-03  0.740E-03  0.649E-03  0.294E-02  0.331E-05  0.948E-04
 -13.478  0.497E-02  0.246E-03  0.165E-03  0.887E-03  0.933E-03  0.260E-02  0.368E-05  0.137E-03
 -13.378  0.470E-02  0.152E-03  0.167E-03  0.106E-02  0.125E-02  0.187E-02  0.446E-05  0.193E-03
 -13.278  0.422E-02  0.911E-04  0.176E-03  0.120E-02  0.143E-02  0.110E-02  0.502E-05  0.230E-03
 -13.178  0.363E-02  0.682E-04  0.166E-03  0.115E-02  0.145E-02  0.561E-03  0.478E-05  0.220E-03
 -13.078  0.313E-02  0.831E-04  0.128E-03  0.903E-03  0.156E-02  0.290E-03  0.373E-05  0.167E-03
 -12.978  0.302E-02  0.128E-03  0.788E-04  0.557E-03  0.195E-02  0.204E-03  0.243E-05  0.995E-04
 -12.878  0.322E-02  0.177E-03  0.381E-04  0.271E-03  0.248E-02  0.201E-03  0.145E-05  0.473E-04
 -12.778  0.324E-02  0.196E-03  0.147E-04  0.107E-03  0.270E-02  0.202E-03  0.889E-06  0.187E-04
 -12.678  0.272E-02  0.168E-03  0.475E-05  0.363E-04  0.233E-02  0.168E-03  0.567E-06  0.671E-05
 -12.578  0.179E-02  0.111E-03  0.142E-05  0.120E-04  0.155E-02  0.110E-03  0.334E-06  0.247E-05
 -12.478  0.910E-03  0.559E-04  0.436E-06  0.413E-05  0.793E-03  0.554E-04  0.163E-06  0.934E-06
 -12.378  0.355E-03  0.216E-04  0.132E-06  0.136E-05  0.310E-03  0.213E-04  0.626E-07  0.323E-06
 -12.278  0.106E-03  0.640E-05  0.357E-07  0.382E-06  0.927E-04  0.630E-05  0.185E-07  0.920E-07
 -12.178  0.242E-04  0.145E-05  0.782E-08  0.854E-07  0.212E-04  0.142E-05  0.422E-08  0.206E-07
 -12.078  0.422E-05  0.251E-06  0.134E-08  0.148E-07  0.371E-05  0.245E-06  0.735E-09  0.357E-08
 -11.978  0.564E-06  0.334E-07  0.176E-09  0.197E-08  0.495E-06  0.323E-07  0.979E-10  0.474E-09
 -11.878  0.575E-07  0.339E-08  0.178E-10  0.201E-09  0.506E-07  0.326E-08  0.997E-11  0.482E-10
 -11.778  0.449E-08  0.263E-09  0.138E-11  0.157E-10  0.395E-08  0.251E-09  0.776E-12  0.375E-11
 -11.678  0.267E-09  0.156E-10  0.812E-13  0.936E-12  0.236E-09  0.148E-10  0.462E-13  0.223E-12
 -11.578  0.122E-10  0.707E-12  0.367E-14  0.426E-13  0.107E-10  0.667E-12  0.210E-14  0.101E-13
 -11.478  0.423E-12  0.245E-13  0.126E-15  0.148E-14  0.374E-12  0.230E-13  0.730E-16  0.351E-15
 -11.378  0.111E-13  0.639E-15  0.332E-17  0.390E-16  0.985E-14  0.600E-15  0.192E-17  0.916E-17
 -11.278  0.000E+00  0.000E+00  0.000E+00  0.000E+00  0.000E+00  0.000E+00  0.000E+00  0.000E+00
 -11.178  0.000E+00  0.000E+00  0.000E+00  0.000E+00  0.000E+00  0.000E+00  0.000E+00  0.000E+00
 -11.078  0.000E+00  0.000E+00  0.000E+00  0.000E+00  0.000E+00  0.000E+00  0.000E+00  0.000E+00
 -10.978  0.000E+00  0.000E+00  0.000E+00  0.000E+00  0.000E+00  0.000E+00  0.000E+00  0.000E+00
 -10.878  0.000E+00  0.000E+00  0.000E+00  0.000E+00  0.000E+00  0.000E+00  0.000E+00  0.000E+00
 -10.778  0.000E+00  0.000E+00  0.000E+00  0.000E+00  0.000E+00  0.000E+00  0.000E+00  0.000E+00
 -10.678  0.000E+00  0.000E+00  0.000E+00  0.000E+00  0.000E+00  0.000E+00  0.000E+00  0.000E+00
 -10.578  0.000E+00  0.000E+00  0.000E+00  0.000E+00  0.000E+00  0.000E+00  0.000E+00  0.000E+00
 -10.478  0.000E+00  0.000E+00  0.000E+00  0.000E+00  0.000E+00  0.000E+00  0.000E+00  0.000E+00
 -10.378  0.000E+00  0.000E+00  0.000E+00  0.000E+00  0.000E+00  0.000E+00  0.000E+00  0.000E+00
 -10.278  0.000E+00  0.000E+00  0.000E+00  0.000E+00  0.000E+00  0.000E+00  0.000E+00  0.000E+00
 -10.178  0.000E+00  0.000E+00  0.000E+00  0.000E+00  0.000E+00  0.000E+00  0.000E+00  0.000E+00
 -10.078  0.000E+00  0.000E+00  0.000E+00  0.000E+00  0.000E+00  0.000E+00  0.000E+00  0.000E+00
  -9.978  0.000E+00  0.000E+00  0.000E+00  0.000E+00  0.000E+00  0.000E+00  0.000E+00  0.000E+00
  -9.878  0.000E+00  0.000E+00  0.000E+00  0.000E+00  0.000E+00  0.000E+00  0.000E+00  0.000E+00
  -9.778  0.000E+00  0.000E+00  0.000E+00  0.000E+00  0.000E+00  0.000E+00  0.000E+00  0.000E+00
  -9.678  0.000E+00  0.000E+00  0.000E+00  0.000E+00  0.000E+00  0.000E+00  0.000E+00  0.000E+00
  -9.578  0.000E+00  0.000E+00  0.000E+00  0.000E+00  0.000E+00  0.000E+00  0.000E+00  0.000E+00
  -9.478  0.000E+00  0.000E+00  0.000E+00  0.000E+00  0.000E+00  0.000E+00  0.000E+00  0.000E+00
  -9.378  0.000E+00  0.000E+00  0.000E+00  0.000E+00  0.000E+00  0.000E+00  0.000E+00  0.000E+00
  -9.278  0.000E+00  0.000E+00  0.000E+00  0.000E+00  0.000E+00  0.000E+00  0.000E+00  0.000E+00
  -9.178  0.000E+00  0.000E+00  0.000E+00  0.000E+00  0.000E+00  0.000E+00  0.000E+00  0.000E+00
  -9.078  0.000E+00  0.000E+00  0.000E+00  0.000E+00  0.000E+00  0.000E+00  0.000E+00  0.000E+00
  -8.978  0.000E+00  0.000E+00  0.000E+00  0.000E+00  0.000E+00  0.000E+00  0.000E+00  0.000E+00
  -8.878  0.907E-16  0.618E-18  0.214E-16  0.646E-16  0.122E-20  0.801E-19  0.656E-18  0.342E-17
  -8.778  0.476E-14  0.305E-16  0.101E-14  0.341E-14  0.240E-18  0.451E-17  0.866E-16  0.210E-15
  -8.678  0.155E-12  0.985E-15  0.326E-13  0.111E-12  0.868E-17  0.149E-15  0.306E-14  0.705E-14
  -8.578  0.388E-11  0.243E-13  0.801E-12  0.279E-11  0.240E-15  0.379E-14  0.829E-13  0.182E-12
  -8.478  0.745E-10  0.461E-12  0.151E-10  0.535E-10  0.511E-14  0.739E-13  0.172E-11  0.363E-11
  -8.378  0.110E-08  0.668E-11  0.219E-09  0.789E-09  0.833E-13  0.111E-11  0.275E-10  0.559E-10
  -8.278  0.125E-07  0.744E-10  0.244E-08  0.894E-08  0.105E-11  0.129E-10  0.338E-09  0.670E-09
  -8.178  0.109E-06  0.637E-09  0.209E-07  0.780E-07  0.102E-10  0.115E-09  0.319E-08  0.628E-08
  -8.078  0.738E-06  0.419E-08  0.139E-06  0.524E-06  0.779E-10  0.802E-09  0.233E-07  0.464E-07
  -7.978  0.387E-05  0.213E-07  0.718E-06  0.272E-05  0.480E-09  0.434E-08  0.132E-06  0.274E-06
  -7.878  0.158E-04  0.836E-07  0.292E-05  0.109E-04  0.254E-08  0.185E-07  0.586E-06  0.131E-05
  -7.778  0.510E-04  0.256E-06  0.943E-05  0.340E-04  0.128E-07  0.630E-07  0.206E-05  0.518E-05
  -7.678  0.131E-03  0.616E-06  0.248E-04  0.827E-04  0.653E-07  0.178E-06  0.590E-05  0.170E-04
  -7.578  0.276E-03  0.119E-05  0.546E-04  0.158E-03  0.328E-06  0.447E-06  0.140E-04  0.471E-04
  -7.478  0.489E-03  0.191E-05  0.103E-03  0.242E-03  0.148E-05  0.110E-05  0.286E-04  0.110E-03
  -7.378  0.757E-03  0.266E-05  0.171E-03  0.304E-03  0.558E-05  0.282E-05  0.509E-04  0.220E-03
  -7.278  0.106E-02  0.340E-05  0.252E-03  0.330E-03  0.174E-04  0.709E-05  0.797E-04  0.375E-03
  -7.178  0.140E-02  0.412E-05  0.335E-03  0.334E-03  0.443E-04  0.162E-04  0.111E-03  0.552E-03
  -7.078  0.173E-02  0.475E-05  0.406E-03  0.341E-03  0.939E-04  0.324E-04  0.138E-03  0.710E-03
  -6.978  0.202E-02  0.510E-05  0.461E-03  0.360E-03  0.168E-03  0.562E-04  0.159E-03  0.813E-03
  -6.878  0.226E-02  0.508E-05  0.500E-03  0.377E-03  0.262E-03  0.863E-04  0.174E-03  0.857E-03
  -6.778  0.244E-02  0.482E-05  0.522E-03  0.373E-03  0.365E-03  0.120E-03  0.183E-03  0.871E-03
  -6.678  0.256E-02  0.459E-05  0.525E-03  0.340E-03  0.475E-03  0.155E-03  0.185E-03  0.879E-03
  -6.578  0.265E-02  0.480E-05  0.507E-03  0.287E-03  0.596E-03  0.199E-03  0.178E-03  0.878E-03
  -6.478  0.272E-02  0.598E-05  0.472E-03  0.230E-03  0.731E-03  0.269E-03  0.167E-03  0.842E-03
  -6.378  0.278E-02  0.896E-05  0.429E-03  0.177E-03  0.868E-03  0.390E-03  0.158E-03  0.746E-03
  -6.278  0.283E-02  0.152E-04  0.378E-03  0.133E-03  0.989E-03  0.568E-03  0.153E-03  0.591E-03
  -6.178  0.288E-02  0.268E-04  0.325E-03  0.100E-03  0.108E-02  0.784E-03  0.150E-03  0.406E-03
  -6.078  0.295E-02  0.462E-04  0.289E-03  0.851E-04  0.114E-02  0.999E-03  0.145E-03  0.240E-03
  -5.978  0.306E-02  0.729E-04  0.303E-03  0.903E-04  0.115E-02  0.117E-02  0.139E-03  0.132E-03
  -5.878  0.321E-02  0.101E-03  0.399E-03  0.114E-03  0.110E-02  0.127E-02  0.137E-03  0.900E-04
  -5.778  0.337E-02  0.123E-03  0.587E-03  0.151E-03  0.102E-02  0.124E-02  0.145E-03  0.102E-03
  -5.678  0.356E-02  0.134E-03  0.832E-03  0.206E-03  0.957E-03  0.111E-02  0.167E-03  0.147E-03
  -5.578  0.380E-02  0.137E-03  0.106E-02  0.297E-03  0.944E-03  0.947E-03  0.200E-03  0.209E-03
  -5.478  0.409E-02  0.140E-03  0.121E-02  0.437E-03  0.980E-03  0.824E-03  0.240E-03  0.267E-03
  -5.378  0.439E-02  0.151E-03  0.123E-02  0.611E-03  0.103E-02  0.777E-03  0.289E-03  0.305E-03
  -5.278  0.461E-02  0.176E-03  0.115E-02  0.767E-03  0.105E-02  0.808E-03  0.345E-03  0.315E-03
  -5.178  0.476E-02  0.230E-03  0.102E-02  0.857E-03  0.104E-02  0.912E-03  0.399E-03  0.302E-03
  -5.078  0.494E-02  0.325E-03  0.901E-03  0.891E-03  0.102E-02  0.110E-02  0.429E-03  0.281E-03
  -4.978  0.528E-02  0.457E-03  0.806E-03  0.933E-03  0.103E-02  0.136E-02  0.426E-03  0.265E-03
  -4.878  0.580E-02  0.600E-03  0.751E-03  0.104E-02  0.110E-02  0.166E-02  0.394E-03  0.259E-03
  -4.778  0.634E-02  0.713E-03  0.716E-03  0.116E-02  0.123E-02  0.192E-02  0.348E-03  0.257E-03
  -4.678  0.665E-02  0.774E-03  0.664E-03  0.121E-02  0.140E-02  0.206E-02  0.296E-03  0.252E-03
  -4.578  0.655E-02  0.785E-03  0.579E-03  0.110E-02  0.154E-02  0.206E-02  0.246E-03  0.243E-03
  -4.478  0.609E-02  0.761E-03  0.490E-03  0.889E-03  0.158E-02  0.192E-02  0.210E-03  0.235E-03
  -4.378  0.543E-02  0.723E-03  0.446E-03  0.664E-03  0.151E-02  0.166E-02  0.201E-03  0.229E-03
  -4.278  0.482E-02  0.687E-03  0.487E-03  0.509E-03  0.136E-02  0.133E-02  0.229E-03  0.223E-03
  -4.178  0.445E-02  0.657E-03  0.618E-03  0.448E-03  0.121E-02  0.997E-03  0.301E-03  0.216E-03
  -4.078  0.438E-02  0.616E-03  0.799E-03  0.466E-03  0.114E-02  0.736E-03  0.422E-03  0.207E-03
  -3.978  0.459E-02  0.557E-03  0.958E-03  0.532E-03  0.117E-02  0.593E-03  0.588E-03  0.193E-03
  -3.878  0.506E-02  0.513E-03  0.104E-02  0.609E-03  0.134E-02  0.606E-03  0.792E-03  0.173E-03
  -3.778  0.589E-02  0.555E-03  0.103E-02  0.665E-03  0.165E-02  0.830E-03  0.101E-02  0.151E-03
  -3.678  0.712E-02  0.753E-03  0.970E-03  0.683E-03  0.206E-02  0.131E-02  0.120E-02  0.139E-03
  -3.578  0.858E-02  0.110E-02  0.921E-03  0.671E-03  0.244E-02  0.200E-02  0.131E-02  0.143E-03
  -3.478  0.987E-02  0.148E-02  0.907E-03  0.663E-03  0.265E-02  0.267E-02  0.134E-02  0.164E-03
  -3.378  0.106E-01  0.172E-02  0.933E-03  0.722E-03  0.264E-02  0.307E-02  0.135E-02  0.199E-03
  -3.278  0.109E-01  0.175E-02  0.100E-02  0.933E-03  0.247E-02  0.306E-02  0.143E-02  0.241E-03
  -3.178  0.111E-01  0.167E-02  0.111E-02  0.134E-02  0.228E-02  0.277E-02  0.165E-02  0.282E-03
  -3.078  0.116E-01  0.162E-02  0.125E-02  0.189E-02  0.215E-02  0.241E-02  0.197E-02  0.315E-03
  -2.978  0.123E-01  0.168E-02  0.138E-02  0.238E-02  0.205E-02  0.215E-02  0.228E-02  0.339E-03
  -2.878  0.128E-01  0.186E-02  0.145E-02  0.264E-02  0.193E-02  0.205E-02  0.247E-02  0.359E-03
  -2.778  0.129E-01  0.213E-02  0.144E-02  0.262E-02  0.179E-02  0.205E-02  0.246E-02  0.392E-03
  -2.678  0.127E-01  0.245E-02  0.139E-02  0.241E-02  0.165E-02  0.207E-02  0.225E-02  0.454E-03
  -2.578  0.123E-01  0.271E-02  0.138E-02  0.216E-02  0.150E-02  0.202E-02  0.194E-02  0.543E-03
  -2.478  0.116E-01  0.275E-02  0.146E-02  0.192E-02  0.132E-02  0.186E-02  0.167E-02  0.636E-03
  -2.378  0.107E-01  0.247E-02  0.166E-02  0.173E-02  0.107E-02  0.156E-02  0.153E-02  0.700E-03
  -2.278  0.968E-02  0.193E-02  0.191E-02  0.164E-02  0.772E-03  0.118E-02  0.151E-02  0.727E-03
  -2.178  0.888E-02  0.133E-02  0.218E-02  0.177E-02  0.483E-03  0.823E-03  0.156E-02  0.737E-03
  -2.078  0.870E-02  0.854E-03  0.241E-02  0.221E-02  0.271E-03  0.575E-03  0.162E-02  0.754E-03
  -1.978  0.905E-02  0.563E-03  0.251E-02  0.290E-02  0.155E-03  0.480E-03  0.166E-02  0.772E-03
  -1.878  0.929E-02  0.427E-03  0.236E-02  0.350E-02  0.111E-03  0.542E-03  0.160E-02  0.746E-03
  -1.778  0.875E-02  0.399E-03  0.191E-02  0.356E-02  0.109E-03  0.772E-03  0.136E-02  0.636E-03
  -1.678  0.742E-02  0.449E-03  0.130E-02  0.294E-02  0.128E-03  0.117E-02  0.976E-03  0.455E-03
  -1.578  0.589E-02  0.546E-03  0.742E-03  0.195E-02  0.153E-03  0.166E-02  0.577E-03  0.266E-03
  -1.478  0.469E-02  0.639E-03  0.373E-03  0.106E-02  0.168E-03  0.203E-02  0.296E-03  0.129E-03
  -1.378  0.397E-02  0.688E-03  0.199E-03  0.511E-03  0.169E-03  0.215E-02  0.186E-03  0.584E-04
  -1.278  0.371E-02  0.702E-03  0.168E-03  0.311E-03  0.170E-03  0.208E-02  0.243E-03  0.396E-04
  -1.178  0.400E-02  0.722E-03  0.237E-03  0.347E-03  0.193E-03  0.199E-02  0.458E-03  0.543E-04
  -1.078  0.478E-02  0.765E-03  0.372E-03  0.521E-03  0.241E-03  0.198E-02  0.817E-03  0.920E-04
  -0.978  0.580E-02  0.794E-03  0.541E-03  0.763E-03  0.291E-03  0.197E-02  0.129E-02  0.147E-03
  -0.878  0.670E-02  0.757E-03  0.735E-03  0.103E-02  0.309E-03  0.185E-02  0.181E-02  0.213E-03
  -0.778  0.733E-02  0.643E-03  0.988E-03  0.130E-02  0.280E-03  0.157E-02  0.227E-02  0.276E-03
  -0.678  0.764E-02  0.491E-03  0.132E-02  0.158E-02  0.221E-03  0.120E-02  0.251E-02  0.314E-03
  -0.578  0.749E-02  0.348E-03  0.166E-02  0.178E-02  0.156E-03  0.843E-03  0.239E-02  0.308E-03
  -0.478  0.664E-02  0.231E-03  0.178E-02  0.178E-02  0.101E-03  0.545E-03  0.195E-02  0.256E-03
  -0.378  0.508E-02  0.142E-03  0.156E-02  0.149E-02  0.583E-04  0.318E-03  0.134E-02  0.178E-03
  -0.278  0.323E-02  0.767E-04  0.108E-02  0.101E-02  0.296E-04  0.163E-03  0.767E-03  0.102E-03
  -0.178  0.165E-02  0.347E-04  0.579E-03  0.540E-03  0.128E-04  0.703E-04  0.362E-03  0.479E-04
  -0.078  0.663E-03  0.127E-04  0.240E-03  0.225E-03  0.459E-05  0.249E-04  0.138E-03  0.181E-04
   0.022  0.213E-03  0.371E-05  0.772E-04  0.731E-04  0.133E-05  0.710E-05  0.452E-04  0.555E-05
   0.122  0.803E-04  0.867E-06  0.238E-04  0.235E-04  0.336E-06  0.165E-05  0.281E-04  0.220E-05
   0.222  0.142E-03  0.243E-06  0.294E-04  0.302E-04  0.213E-06  0.543E-06  0.773E-04  0.404E-05
   0.322  0.464E-03  0.341E-06  0.105E-03  0.101E-03  0.668E-06  0.107E-05  0.245E-03  0.121E-04
   0.422  0.129E-02  0.902E-06  0.334E-03  0.299E-03  0.223E-05  0.322E-05  0.619E-03  0.304E-04
   0.522  0.289E-02  0.213E-05  0.862E-03  0.720E-03  0.626E-05  0.810E-05  0.123E-02  0.627E-04
   0.622  0.536E-02  0.440E-05  0.182E-02  0.143E-02  0.151E-04  0.168E-04  0.197E-02  0.108E-03
   0.722  0.839E-02  0.838E-05  0.319E-02  0.239E-02  0.334E-04  0.299E-04  0.258E-02  0.164E-03
   0.822  0.114E-01  0.159E-04  0.470E-02  0.346E-02  0.739E-04  0.497E-04  0.290E-02  0.229E-03
   0.922  0.139E-01  0.319E-04  0.592E-02  0.446E-02  0.172E-03  0.863E-04  0.297E-02  0.306E-03
   1.022  0.156E-01  0.674E-04  0.649E-02  0.518E-02  0.397E-03  0.165E-03  0.291E-02  0.390E-03
   1.122  0.163E-01  0.139E-03  0.636E-02  0.548E-02  0.836E-03  0.328E-03  0.273E-02  0.465E-03
   1.222  0.163E-01  0.261E-03  0.571E-02  0.530E-02  0.152E-02  0.625E-03  0.237E-02  0.503E-03
   1.322  0.158E-01  0.433E-03  0.484E-02  0.476E-02  0.237E-02  0.110E-02  0.184E-02  0.487E-03
   1.422  0.153E-01  0.627E-03  0.400E-02  0.406E-02  0.320E-02  0.174E-02  0.125E-02  0.426E-03
   1.522  0.150E-01  0.796E-03  0.336E-02  0.340E-02  0.386E-02  0.248E-02  0.771E-03  0.353E-03
   1.622  0.149E-01  0.902E-03  0.297E-02  0.287E-02  0.424E-02  0.311E-02  0.482E-03  0.297E-03
   1.722  0.145E-01  0.944E-03  0.272E-02  0.245E-02  0.433E-02  0.339E-02  0.351E-03  0.265E-03
   1.822  0.134E-01  0.956E-03  0.246E-02  0.208E-02  0.415E-02  0.320E-02  0.296E-03  0.240E-03
   1.922  0.116E-01  0.971E-03  0.207E-02  0.169E-02  0.376E-02  0.266E-02  0.249E-03  0.204E-03
   2.022  0.938E-02  0.980E-03  0.153E-02  0.127E-02  0.323E-02  0.202E-02  0.187E-03  0.155E-03
   2.122  0.706E-02  0.938E-03  0.979E-03  0.867E-03  0.259E-02  0.147E-02  0.120E-03  0.103E-03
   2.222  0.491E-02  0.806E-03  0.526E-03  0.531E-03  0.189E-02  0.103E-02  0.644E-04  0.616E-04
   2.322  0.307E-02  0.593E-03  0.234E-03  0.290E-03  0.122E-02  0.676E-03  0.286E-04  0.332E-04
   2.422  0.167E-02  0.361E-03  0.852E-04  0.141E-03  0.674E-03  0.385E-03  0.105E-04  0.162E-04
   2.522  0.765E-03  0.178E-03  0.253E-04  0.590E-04  0.311E-03  0.181E-03  0.322E-05  0.693E-05
   2.622  0.285E-03  0.695E-04  0.615E-05  0.208E-04  0.117E-03  0.683E-04  0.826E-06  0.250E-05
   2.722  0.850E-04  0.214E-04  0.124E-05  0.603E-05  0.352E-04  0.202E-04  0.179E-06  0.735E-06
   2.822  0.199E-04  0.514E-05  0.208E-06  0.139E-05  0.832E-05  0.467E-05  0.329E-07  0.172E-06
   2.922  0.365E-05  0.956E-06  0.294E-07  0.254E-06  0.154E-05  0.834E-06  0.504E-08  0.315E-07
   3.022  0.517E-06  0.138E-06  0.346E-08  0.361E-07  0.220E-06  0.115E-06  0.635E-09  0.448E-08
   3.122  0.565E-07  0.153E-07  0.334E-09  0.396E-08  0.243E-07  0.122E-07  0.644E-10  0.493E-09
