# E (eV)   ldos(E)   pdos(E)    pdos(E)    pdos(E)   
 -16.578  0.713E-07  0.439E-07  0.170E-07  0.104E-07
 -16.478  0.609E-06  0.367E-06  0.149E-06  0.934E-07
 -16.378  0.402E-05  0.236E-05  0.101E-05  0.657E-06
 -16.278  0.206E-04  0.116E-04  0.534E-05  0.362E-05
 -16.178  0.825E-04  0.444E-04  0.223E-04  0.157E-04
 -16.078  0.260E-03  0.131E-03  0.746E-04  0.547E-04
 -15.978  0.658E-03  0.301E-03  0.203E-03  0.154E-03
 -15.878  0.136E-02  0.545E-03  0.457E-03  0.359E-03
 -15.778  0.238E-02  0.800E-03  0.870E-03  0.705E-03
 -15.678  0.361E-02  0.101E-02  0.142E-02  0.119E-02
 -15.578  0.491E-02  0.120E-02  0.198E-02  0.173E-02
 -15.478  0.604E-02  0.148E-02  0.236E-02  0.220E-02
 -15.378  0.670E-02  0.181E-02  0.243E-02  0.245E-02
 -15.278  0.671E-02  0.205E-02  0.222E-02  0.244E-02
 -15.178  0.623E-02  0.205E-02  0.191E-02  0.227E-02
 -15.078  0.571E-02  0.187E-02  0.168E-02  0.216E-02
 -14.978  0.564E-02  0.171E-02  0.162E-02  0.231E-02
 -14.878  0.631E-02  0.174E-02  0.178E-02  0.280E-02
 -14.778  0.772E-02  0.202E-02  0.213E-02  0.357E-02
 -14.678  0.963E-02  0.253E-02  0.266E-02  0.444E-02
 -14.578  0.116E-01  0.314E-02  0.333E-02  0.514E-02
 -14.478  0.133E-01  0.370E-02  0.410E-02  0.550E-02
 -14.378  0.146E-01  0.409E-02  0.494E-02  0.560E-02
 -14.278  0.158E-01  0.435E-02  0.574E-02  0.571E-02
 -14.178  0.169E-01  0.450E-02  0.632E-02  0.605E-02
 -14.078  0.177E-01  0.451E-02  0.660E-02  0.660E-02
 -13.978  0.181E-01  0.430E-02  0.669E-02  0.708E-02
 -13.878  0.180E-01  0.390E-02  0.686E-02  0.722E-02
 -13.778  0.177E-01  0.354E-02  0.723E-02  0.688E-02
 -13.678  0.174E-01  0.353E-02  0.768E-02  0.619E-02
 -13.578  0.174E-01  0.414E-02  0.795E-02  0.534E-02
 -13.478  0.179E-01  0.543E-02  0.792E-02  0.456E-02
 -13.378  0.186E-01  0.700E-02  0.759E-02  0.397E-02
 -13.278  0.184E-01  0.796E-02  0.694E-02  0.353E-02
 -13.178  0.168E-01  0.764E-02  0.603E-02  0.315E-02
 -13.078  0.146E-01  0.637E-02  0.529E-02  0.299E-02
 -12.978  0.136E-01  0.521E-02  0.517E-02  0.321E-02
 -12.878  0.138E-01  0.471E-02  0.548E-02  0.360E-02
 -12.778  0.134E-01  0.440E-02  0.539E-02  0.361E-02
 -12.678  0.110E-01  0.364E-02  0.439E-02  0.295E-02
 -12.578  0.711E-02  0.242E-02  0.281E-02  0.188E-02
 -12.478  0.356E-02  0.125E-02  0.139E-02  0.923E-03
 -12.378  0.137E-02  0.497E-03  0.527E-03  0.349E-03
 -12.278  0.405E-03  0.151E-03  0.153E-03  0.101E-03
 -12.178  0.915E-04  0.349E-04  0.342E-04  0.224E-04
 -12.078  0.158E-04  0.618E-05  0.583E-05  0.381E-05
 -11.978  0.209E-05  0.834E-06  0.762E-06  0.497E-06
 -11.878  0.212E-06  0.861E-07  0.762E-07  0.496E-07
 -11.778  0.164E-07  0.678E-08  0.584E-08  0.379E-08
 -11.678  0.972E-09  0.408E-09  0.342E-09  0.222E-09
 -11.578  0.440E-10  0.187E-10  0.153E-10  0.994E-11
 -11.478  0.152E-11  0.657E-12  0.525E-12  0.341E-12
 -11.378  0.399E-13  0.176E-13  0.135E-13  0.877E-14
 -11.278  0.000E+00  0.000E+00  0.000E+00  0.000E+00
 -11.178  0.000E+00  0.000E+00  0.000E+00  0.000E+00
 -11.078  0.000E+00  0.000E+00  0.000E+00  0.000E+00
 -10.978  0.000E+00  0.000E+00  0.000E+00  0.000E+00
 -10.878  0.000E+00  0.000E+00  0.000E+00  0.000E+00
 -10.778  0.000E+00  0.000E+00  0.000E+00  0.000E+00
 -10.678  0.000E+00  0.000E+00  0.000E+00  0.000E+00
 -10.578  0.000E+00  0.000E+00  0.000E+00  0.000E+00
 -10.478  0.000E+00  0.000E+00  0.000E+00  0.000E+00
 -10.378  0.000E+00  0.000E+00  0.000E+00  0.000E+00
 -10.278  0.000E+00  0.000E+00  0.000E+00  0.000E+00
 -10.178  0.000E+00  0.000E+00  0.000E+00  0.000E+00
 -10.078  0.000E+00  0.000E+00  0.000E+00  0.000E+00
  -9.978  0.000E+00  0.000E+00  0.000E+00  0.000E+00
  -9.878  0.000E+00  0.000E+00  0.000E+00  0.000E+00
  -9.778  0.000E+00  0.000E+00  0.000E+00  0.000E+00
  -9.678  0.000E+00  0.000E+00  0.000E+00  0.000E+00
  -9.578  0.000E+00  0.000E+00  0.000E+00  0.000E+00
  -9.478  0.000E+00  0.000E+00  0.000E+00  0.000E+00
  -9.378  0.000E+00  0.000E+00  0.000E+00  0.000E+00
  -9.278  0.000E+00  0.000E+00  0.000E+00  0.000E+00
  -9.178  0.000E+00  0.000E+00  0.000E+00  0.000E+00
  -9.078  0.000E+00  0.000E+00  0.000E+00  0.000E+00
  -8.978  0.000E+00  0.000E+00  0.000E+00  0.000E+00
  -8.878  0.129E-13  0.253E-16  0.718E-14  0.574E-14
  -8.778  0.635E-12  0.135E-14  0.340E-12  0.294E-12
  -8.678  0.205E-10  0.440E-13  0.109E-10  0.956E-11
  -8.578  0.507E-09  0.110E-11  0.268E-09  0.238E-09
  -8.478  0.961E-08  0.213E-10  0.504E-08  0.455E-08
  -8.378  0.140E-06  0.315E-09  0.727E-07  0.668E-07
  -8.278  0.156E-05  0.360E-08  0.805E-06  0.755E-06
  -8.178  0.135E-04  0.320E-07  0.684E-05  0.658E-05
  -8.078  0.893E-04  0.223E-06  0.448E-04  0.443E-04
  -7.978  0.459E-03  0.124E-05  0.227E-03  0.231E-03
  -7.878  0.184E-02  0.572E-05  0.892E-03  0.946E-03
  -7.778  0.583E-02  0.230E-04  0.275E-02  0.305E-02
  -7.678  0.148E-01  0.867E-04  0.678E-02  0.792E-02
  -7.578  0.309E-01  0.317E-03  0.137E-01  0.169E-01
  -7.478  0.553E-01  0.110E-02  0.237E-01  0.305E-01
  -7.378  0.883E-01  0.349E-02  0.369E-01  0.479E-01
  -7.278  0.131E+00  0.961E-02  0.542E-01  0.674E-01
  -7.178  0.186E+00  0.224E-01  0.769E-01  0.867E-01
  -7.078  0.253E+00  0.438E-01  0.105E+00  0.105E+00
  -6.978  0.330E+00  0.722E-01  0.136E+00  0.121E+00
  -6.878  0.405E+00  0.102E+00  0.164E+00  0.139E+00
  -6.778  0.467E+00  0.125E+00  0.183E+00  0.159E+00
  -6.678  0.509E+00  0.139E+00  0.189E+00  0.181E+00
  -6.578  0.534E+00  0.147E+00  0.184E+00  0.203E+00
  -6.478  0.549E+00  0.151E+00  0.176E+00  0.222E+00
  -6.378  0.553E+00  0.153E+00  0.171E+00  0.228E+00
  -6.278  0.532E+00  0.149E+00  0.168E+00  0.214E+00
  -6.178  0.479E+00  0.134E+00  0.162E+00  0.183E+00
  -6.078  0.411E+00  0.113E+00  0.149E+00  0.149E+00
  -5.978  0.354E+00  0.920E-01  0.136E+00  0.126E+00
  -5.878  0.322E+00  0.793E-01  0.125E+00  0.118E+00
  -5.778  0.315E+00  0.766E-01  0.118E+00  0.121E+00
  -5.678  0.325E+00  0.824E-01  0.115E+00  0.127E+00
  -5.578  0.349E+00  0.936E-01  0.119E+00  0.137E+00
  -5.478  0.390E+00  0.108E+00  0.128E+00  0.154E+00
  -5.378  0.441E+00  0.125E+00  0.141E+00  0.176E+00
  -5.278  0.493E+00  0.147E+00  0.151E+00  0.195E+00
  -5.178  0.539E+00  0.179E+00  0.154E+00  0.207E+00
  -5.078  0.590E+00  0.227E+00  0.151E+00  0.213E+00
  -4.978  0.662E+00  0.292E+00  0.147E+00  0.223E+00
  -4.878  0.763E+00  0.364E+00  0.153E+00  0.246E+00
  -4.778  0.876E+00  0.420E+00  0.176E+00  0.280E+00
  -4.678  0.959E+00  0.437E+00  0.214E+00  0.308E+00
  -4.578  0.978E+00  0.411E+00  0.251E+00  0.316E+00
  -4.478  0.929E+00  0.356E+00  0.271E+00  0.302E+00
  -4.378  0.830E+00  0.291E+00  0.264E+00  0.275E+00
  -4.278  0.712E+00  0.231E+00  0.234E+00  0.247E+00
  -4.178  0.603E+00  0.187E+00  0.194E+00  0.222E+00
  -4.078  0.524E+00  0.164E+00  0.160E+00  0.200E+00
  -3.978  0.479E+00  0.158E+00  0.139E+00  0.182E+00
  -3.878  0.459E+00  0.158E+00  0.132E+00  0.169E+00
  -3.778  0.449E+00  0.155E+00  0.132E+00  0.161E+00
  -3.678  0.445E+00  0.150E+00  0.136E+00  0.158E+00
  -3.578  0.455E+00  0.146E+00  0.144E+00  0.164E+00
  -3.478  0.485E+00  0.147E+00  0.157E+00  0.182E+00
  -3.378  0.538E+00  0.151E+00  0.175E+00  0.212E+00
  -3.278  0.610E+00  0.160E+00  0.192E+00  0.257E+00
  -3.178  0.698E+00  0.179E+00  0.209E+00  0.310E+00
  -3.078  0.791E+00  0.208E+00  0.229E+00  0.354E+00
  -2.978  0.869E+00  0.243E+00  0.254E+00  0.372E+00
  -2.878  0.916E+00  0.272E+00  0.279E+00  0.364E+00
  -2.778  0.931E+00  0.291E+00  0.299E+00  0.341E+00
  -2.678  0.932E+00  0.308E+00  0.308E+00  0.316E+00
  -2.578  0.931E+00  0.337E+00  0.304E+00  0.291E+00
  -2.478  0.931E+00  0.381E+00  0.288E+00  0.262E+00
  -2.378  0.916E+00  0.425E+00  0.267E+00  0.225E+00
  -2.278  0.875E+00  0.442E+00  0.250E+00  0.183E+00
  -2.178  0.808E+00  0.426E+00  0.239E+00  0.143E+00
  -2.078  0.730E+00  0.383E+00  0.230E+00  0.117E+00
  -1.978  0.650E+00  0.330E+00  0.212E+00  0.108E+00
  -1.878  0.559E+00  0.271E+00  0.179E+00  0.109E+00
  -1.778  0.448E+00  0.207E+00  0.136E+00  0.105E+00
  -1.678  0.326E+00  0.142E+00  0.944E-01  0.891E-01
  -1.578  0.219E+00  0.898E-01  0.648E-01  0.646E-01
  -1.478  0.149E+00  0.561E-01  0.514E-01  0.420E-01
  -1.378  0.130E+00  0.410E-01  0.588E-01  0.303E-01
  -1.278  0.181E+00  0.449E-01  0.101E+00  0.348E-01
  -1.178  0.327E+00  0.749E-01  0.194E+00  0.580E-01
  -1.078  0.571E+00  0.144E+00  0.330E+00  0.973E-01
  -0.978  0.872E+00  0.262E+00  0.468E+00  0.142E+00
  -0.878  0.115E+01  0.417E+00  0.552E+00  0.178E+00
  -0.778  0.131E+01  0.561E+00  0.552E+00  0.194E+00
  -0.678  0.130E+01  0.628E+00  0.484E+00  0.190E+00
  -0.578  0.113E+01  0.580E+00  0.386E+00  0.168E+00
  -0.478  0.863E+00  0.443E+00  0.285E+00  0.135E+00
  -0.378  0.566E+00  0.280E+00  0.191E+00  0.957E-01
  -0.278  0.316E+00  0.146E+00  0.112E+00  0.575E-01
  -0.178  0.146E+00  0.626E-01  0.549E-01  0.283E-01
  -0.078  0.547E-01  0.219E-01  0.217E-01  0.111E-01
   0.022  0.164E-01  0.619E-02  0.678E-02  0.347E-02
   0.122  0.453E-02  0.177E-02  0.172E-02  0.104E-02
   0.222  0.384E-02  0.212E-02  0.656E-03  0.106E-02
   0.322  0.112E-01  0.687E-02  0.132E-02  0.305E-02
   0.422  0.315E-01  0.195E-01  0.383E-02  0.819E-02
   0.522  0.719E-01  0.440E-01  0.953E-02  0.184E-01
   0.622  0.134E+00  0.791E-01  0.202E-01  0.351E-01
   0.722  0.211E+00  0.115E+00  0.370E-01  0.583E-01
   0.822  0.286E+00  0.140E+00  0.605E-01  0.852E-01
   0.922  0.349E+00  0.148E+00  0.901E-01  0.111E+00
   1.022  0.401E+00  0.144E+00  0.126E+00  0.132E+00
   1.122  0.448E+00  0.138E+00  0.165E+00  0.145E+00
   1.222  0.488E+00  0.134E+00  0.202E+00  0.152E+00
   1.322  0.509E+00  0.132E+00  0.224E+00  0.153E+00
   1.422  0.509E+00  0.128E+00  0.228E+00  0.153E+00
   1.522  0.501E+00  0.121E+00  0.221E+00  0.159E+00
   1.622  0.501E+00  0.114E+00  0.215E+00  0.172E+00
   1.722  0.505E+00  0.113E+00  0.211E+00  0.182E+00
   1.822  0.489E+00  0.115E+00  0.196E+00  0.179E+00
   1.922  0.434E+00  0.112E+00  0.163E+00  0.159E+00
   2.022  0.341E+00  0.977E-01  0.118E+00  0.126E+00
   2.122  0.236E+00  0.728E-01  0.740E-01  0.888E-01
   2.222  0.141E+00  0.455E-01  0.399E-01  0.558E-01
   2.322  0.733E-01  0.237E-01  0.187E-01  0.309E-01
   2.422  0.328E-01  0.103E-01  0.760E-02  0.149E-01
   2.522  0.126E-01  0.377E-02  0.267E-02  0.616E-02
   2.622  0.409E-02  0.116E-02  0.803E-03  0.214E-02
   2.722  0.110E-02  0.294E-03  0.203E-03  0.606E-03
   2.822  0.241E-03  0.609E-04  0.420E-04  0.138E-03
   2.922  0.420E-04  0.101E-04  0.701E-05  0.249E-04
   3.022  0.577E-05  0.134E-05  0.926E-06  0.350E-05
   3.122  0.617E-06  0.138E-06  0.959E-07  0.383E-06
