# E (eV)   ldos(E)   pdos(E)    pdos(E)    pdos(E)    pdos(E)    pdos(E)    pdos(E)    pdos(E)   
 -16.578  0.171E-07  0.934E-10  0.255E-09  0.136E-09  0.979E-11  0.361E-10  0.191E-10  0.165E-07
 -16.478  0.143E-06  0.783E-09  0.221E-08  0.120E-08  0.820E-10  0.304E-09  0.160E-09  0.139E-06
 -16.378  0.924E-06  0.504E-08  0.149E-07  0.819E-08  0.528E-09  0.197E-08  0.103E-08  0.892E-06
 -16.278  0.459E-05  0.250E-07  0.782E-07  0.437E-07  0.261E-08  0.987E-08  0.507E-08  0.442E-05
 -16.178  0.176E-04  0.958E-07  0.325E-06  0.184E-06  0.999E-08  0.382E-07  0.193E-07  0.169E-04
 -16.078  0.523E-04  0.284E-06  0.108E-05  0.617E-06  0.296E-07  0.115E-06  0.568E-07  0.501E-04
 -15.978  0.121E-03  0.657E-06  0.293E-05  0.168E-05  0.681E-07  0.274E-06  0.130E-06  0.116E-03
 -15.878  0.222E-03  0.120E-05  0.665E-05  0.382E-05  0.123E-06  0.518E-06  0.233E-06  0.210E-03
 -15.778  0.330E-03  0.176E-05  0.129E-04  0.744E-05  0.178E-06  0.806E-06  0.333E-06  0.307E-03
 -15.678  0.414E-03  0.218E-05  0.215E-04  0.128E-04  0.214E-06  0.108E-05  0.392E-06  0.376E-03
 -15.578  0.475E-03  0.246E-05  0.311E-04  0.200E-04  0.229E-06  0.132E-05  0.406E-06  0.420E-03
 -15.478  0.537E-03  0.276E-05  0.387E-04  0.286E-04  0.245E-06  0.156E-05  0.409E-06  0.465E-03
 -15.378  0.610E-03  0.314E-05  0.421E-04  0.377E-04  0.295E-06  0.179E-05  0.442E-06  0.525E-03
 -15.278  0.667E-03  0.352E-05  0.417E-04  0.466E-04  0.429E-06  0.197E-05  0.534E-06  0.572E-03
 -15.178  0.681E-03  0.410E-05  0.405E-04  0.558E-04  0.755E-06  0.215E-05  0.712E-06  0.577E-03
 -15.078  0.671E-03  0.654E-05  0.422E-04  0.673E-04  0.156E-05  0.275E-05  0.996E-06  0.549E-03
 -14.978  0.681E-03  0.158E-04  0.494E-04  0.839E-04  0.366E-05  0.515E-05  0.138E-05  0.522E-03
 -14.878  0.749E-03  0.414E-04  0.635E-04  0.107E-03  0.907E-05  0.127E-04  0.183E-05  0.514E-03
 -14.778  0.883E-03  0.944E-04  0.831E-04  0.136E-03  0.219E-04  0.312E-04  0.241E-05  0.514E-03
 -14.678  0.107E-02  0.178E-03  0.104E-03  0.169E-03  0.486E-04  0.667E-04  0.318E-05  0.503E-03
 -14.578  0.129E-02  0.280E-03  0.120E-03  0.203E-03  0.962E-04  0.119E-03  0.408E-05  0.473E-03
 -14.478  0.154E-02  0.379E-03  0.134E-03  0.243E-03  0.169E-03  0.178E-03  0.483E-05  0.437E-03
 -14.378  0.184E-02  0.457E-03  0.155E-03  0.305E-03  0.265E-03  0.231E-03  0.523E-05  0.421E-03
 -14.278  0.220E-02  0.508E-03  0.194E-03  0.408E-03  0.379E-03  0.278E-03  0.534E-05  0.427E-03
 -14.178  0.261E-02  0.534E-03  0.248E-03  0.548E-03  0.510E-03  0.336E-03  0.544E-05  0.432E-03
 -14.078  0.303E-02  0.538E-03  0.308E-03  0.683E-03  0.673E-03  0.422E-03  0.562E-05  0.405E-03
 -13.978  0.341E-02  0.523E-03  0.364E-03  0.747E-03  0.898E-03  0.539E-03  0.563E-05  0.338E-03
 -13.878  0.378E-02  0.490E-03  0.421E-03  0.699E-03  0.123E-02  0.684E-03  0.518E-05  0.249E-03
 -13.778  0.423E-02  0.447E-03  0.490E-03  0.560E-03  0.169E-02  0.864E-03  0.432E-05  0.168E-03
 -13.678  0.476E-02  0.401E-03  0.570E-03  0.406E-03  0.218E-02  0.109E-02  0.344E-05  0.119E-03
 -13.578  0.519E-02  0.343E-03  0.660E-03  0.305E-03  0.244E-02  0.132E-02  0.288E-05  0.116E-03
 -13.478  0.527E-02  0.267E-03  0.765E-03  0.287E-03  0.228E-02  0.151E-02  0.272E-05  0.154E-03
 -13.378  0.496E-02  0.182E-03  0.879E-03  0.334E-03  0.176E-02  0.159E-02  0.281E-05  0.207E-03
 -13.278  0.436E-02  0.113E-03  0.940E-03  0.391E-03  0.115E-02  0.153E-02  0.285E-05  0.235E-03
 -13.178  0.365E-02  0.815E-04  0.867E-03  0.392E-03  0.714E-03  0.137E-02  0.258E-05  0.216E-03
 -13.078  0.310E-02  0.956E-04  0.655E-03  0.314E-03  0.552E-03  0.132E-02  0.198E-05  0.157E-03
 -12.978  0.298E-02  0.145E-03  0.395E-03  0.198E-03  0.632E-03  0.151E-02  0.130E-05  0.907E-04
 -12.878  0.316E-02  0.197E-03  0.190E-03  0.974E-04  0.809E-03  0.182E-02  0.793E-06  0.426E-04
 -12.778  0.315E-02  0.214E-03  0.756E-04  0.383E-04  0.890E-03  0.191E-02  0.504E-06  0.173E-04
 -12.678  0.260E-02  0.180E-03  0.269E-04  0.126E-04  0.770E-03  0.161E-02  0.331E-06  0.676E-05
 -12.578  0.169E-02  0.116E-03  0.964E-05  0.387E-05  0.514E-03  0.104E-02  0.198E-06  0.274E-05
 -12.478  0.848E-03  0.573E-04  0.354E-05  0.119E-05  0.263E-03  0.522E-03  0.980E-07  0.109E-05
 -12.378  0.327E-03  0.218E-04  0.120E-05  0.354E-06  0.103E-03  0.200E-03  0.380E-07  0.379E-06
 -12.278  0.965E-04  0.633E-05  0.340E-06  0.928E-07  0.308E-04  0.588E-04  0.114E-07  0.106E-06
 -12.178  0.218E-04  0.141E-05  0.760E-07  0.197E-07  0.707E-05  0.132E-04  0.261E-08  0.231E-07
 -12.078  0.378E-05  0.241E-06  0.131E-07  0.329E-08  0.124E-05  0.228E-05  0.458E-09  0.388E-08
 -11.978  0.501E-06  0.315E-07  0.175E-08  0.423E-09  0.166E-06  0.301E-06  0.615E-10  0.501E-09
 -11.878  0.507E-07  0.316E-08  0.177E-09  0.417E-10  0.170E-07  0.303E-07  0.631E-11  0.496E-10
 -11.778  0.393E-08  0.242E-09  0.138E-10  0.315E-11  0.133E-08  0.234E-08  0.495E-12  0.377E-11
 -11.678  0.233E-09  0.142E-10  0.820E-12  0.183E-12  0.794E-10  0.138E-09  0.297E-13  0.219E-12
 -11.578  0.106E-10  0.639E-12  0.373E-13  0.809E-14  0.363E-11  0.625E-11  0.136E-14  0.974E-14
 -11.478  0.367E-12  0.220E-13  0.129E-14  0.275E-15  0.127E-12  0.216E-12  0.475E-16  0.332E-15
 -11.378  0.961E-14  0.566E-15  0.340E-16  0.698E-17  0.335E-14  0.564E-14  0.126E-17  0.842E-17
 -11.278  0.000E+00  0.000E+00  0.000E+00  0.000E+00  0.000E+00  0.000E+00  0.000E+00  0.000E+00
 -11.178  0.000E+00  0.000E+00  0.000E+00  0.000E+00  0.000E+00  0.000E+00  0.000E+00  0.000E+00
 -11.078  0.000E+00  0.000E+00  0.000E+00  0.000E+00  0.000E+00  0.000E+00  0.000E+00  0.000E+00
 -10.978  0.000E+00  0.000E+00  0.000E+00  0.000E+00  0.000E+00  0.000E+00  0.000E+00  0.000E+00
 -10.878  0.000E+00  0.000E+00  0.000E+00  0.000E+00  0.000E+00  0.000E+00  0.000E+00  0.000E+00
 -10.778  0.000E+00  0.000E+00  0.000E+00  0.000E+00  0.000E+00  0.000E+00  0.000E+00  0.000E+00
 -10.678  0.000E+00  0.000E+00  0.000E+00  0.000E+00  0.000E+00  0.000E+00  0.000E+00  0.000E+00
 -10.578  0.000E+00  0.000E+00  0.000E+00  0.000E+00  0.000E+00  0.000E+00  0.000E+00  0.000E+00
 -10.478  0.000E+00  0.000E+00  0.000E+00  0.000E+00  0.000E+00  0.000E+00  0.000E+00  0.000E+00
 -10.378  0.000E+00  0.000E+00  0.000E+00  0.000E+00  0.000E+00  0.000E+00  0.000E+00  0.000E+00
 -10.278  0.000E+00  0.000E+00  0.000E+00  0.000E+00  0.000E+00  0.000E+00  0.000E+00  0.000E+00
 -10.178  0.000E+00  0.000E+00  0.000E+00  0.000E+00  0.000E+00  0.000E+00  0.000E+00  0.000E+00
 -10.078  0.000E+00  0.000E+00  0.000E+00  0.000E+00  0.000E+00  0.000E+00  0.000E+00  0.000E+00
  -9.978  0.000E+00  0.000E+00  0.000E+00  0.000E+00  0.000E+00  0.000E+00  0.000E+00  0.000E+00
  -9.878  0.000E+00  0.000E+00  0.000E+00  0.000E+00  0.000E+00  0.000E+00  0.000E+00  0.000E+00
  -9.778  0.000E+00  0.000E+00  0.000E+00  0.000E+00  0.000E+00  0.000E+00  0.000E+00  0.000E+00
  -9.678  0.000E+00  0.000E+00  0.000E+00  0.000E+00  0.000E+00  0.000E+00  0.000E+00  0.000E+00
  -9.578  0.000E+00  0.000E+00  0.000E+00  0.000E+00  0.000E+00  0.000E+00  0.000E+00  0.000E+00
  -9.478  0.000E+00  0.000E+00  0.000E+00  0.000E+00  0.000E+00  0.000E+00  0.000E+00  0.000E+00
  -9.378  0.000E+00  0.000E+00  0.000E+00  0.000E+00  0.000E+00  0.000E+00  0.000E+00  0.000E+00
  -9.278  0.000E+00  0.000E+00  0.000E+00  0.000E+00  0.000E+00  0.000E+00  0.000E+00  0.000E+00
  -9.178  0.000E+00  0.000E+00  0.000E+00  0.000E+00  0.000E+00  0.000E+00  0.000E+00  0.000E+00
  -9.078  0.000E+00  0.000E+00  0.000E+00  0.000E+00  0.000E+00  0.000E+00  0.000E+00  0.000E+00
  -8.978  0.000E+00  0.000E+00  0.000E+00  0.000E+00  0.000E+00  0.000E+00  0.000E+00  0.000E+00
  -8.878  0.770E-16  0.463E-18  0.598E-16  0.622E-17  0.483E-20  0.121E-19  0.734E-17  0.315E-17
  -8.778  0.406E-14  0.249E-16  0.311E-14  0.344E-15  0.625E-18  0.673E-18  0.403E-15  0.177E-15
  -8.678  0.132E-12  0.818E-15  0.101E-12  0.114E-13  0.227E-16  0.223E-16  0.132E-13  0.582E-14
  -8.578  0.331E-11  0.205E-13  0.252E-11  0.290E-12  0.626E-15  0.567E-15  0.331E-12  0.148E-12
  -8.478  0.636E-10  0.396E-12  0.482E-10  0.568E-11  0.133E-13  0.111E-13  0.636E-11  0.288E-11
  -8.378  0.938E-09  0.586E-11  0.708E-09  0.859E-10  0.216E-12  0.166E-12  0.940E-10  0.434E-10
  -8.278  0.106E-07  0.668E-10  0.799E-08  0.101E-08  0.273E-11  0.194E-11  0.107E-08  0.507E-09
  -8.178  0.931E-07  0.587E-09  0.693E-07  0.921E-08  0.266E-10  0.176E-10  0.932E-08  0.463E-08
  -8.078  0.629E-06  0.397E-08  0.463E-06  0.660E-07  0.202E-09  0.125E-09  0.626E-07  0.334E-07
  -7.978  0.330E-05  0.208E-07  0.238E-05  0.375E-06  0.120E-08  0.718E-09  0.325E-06  0.193E-06
  -7.878  0.135E-04  0.844E-07  0.949E-05  0.171E-05  0.571E-08  0.344E-08  0.131E-05  0.914E-06
  -7.778  0.437E-04  0.267E-06  0.293E-04  0.639E-05  0.228E-07  0.150E-07  0.411E-05  0.361E-05
  -7.678  0.113E-03  0.662E-06  0.705E-04  0.197E-04  0.836E-07  0.662E-07  0.102E-04  0.121E-04
  -7.578  0.242E-03  0.131E-05  0.134E-03  0.508E-04  0.308E-06  0.303E-06  0.206E-04  0.347E-04
  -7.478  0.439E-03  0.211E-05  0.204E-03  0.110E-03  0.114E-05  0.134E-05  0.350E-04  0.848E-04
  -7.378  0.701E-03  0.291E-05  0.260E-03  0.201E-03  0.394E-05  0.523E-05  0.523E-04  0.176E-03
  -7.278  0.102E-02  0.363E-05  0.292E-03  0.313E-03  0.116E-04  0.172E-04  0.719E-04  0.312E-03
  -7.178  0.139E-02  0.439E-05  0.308E-03  0.425E-03  0.283E-04  0.472E-04  0.931E-04  0.481E-03
  -7.078  0.179E-02  0.528E-05  0.322E-03  0.519E-03  0.570E-04  0.108E-03  0.117E-03  0.659E-03
  -6.978  0.221E-02  0.623E-05  0.335E-03  0.585E-03  0.961E-04  0.209E-03  0.145E-03  0.829E-03
  -6.878  0.260E-02  0.707E-05  0.340E-03  0.619E-03  0.140E-03  0.339E-03  0.179E-03  0.973E-03
  -6.778  0.288E-02  0.758E-05  0.326E-03  0.612E-03  0.188E-03  0.464E-03  0.208E-03  0.107E-02
  -6.678  0.296E-02  0.761E-05  0.293E-03  0.561E-03  0.246E-03  0.545E-03  0.221E-03  0.109E-02
  -6.578  0.286E-02  0.731E-05  0.249E-03  0.475E-03  0.329E-03  0.570E-03  0.213E-03  0.102E-02
  -6.478  0.267E-02  0.727E-05  0.213E-03  0.375E-03  0.439E-03  0.571E-03  0.196E-03  0.868E-03
  -6.378  0.250E-02  0.847E-05  0.194E-03  0.287E-03  0.554E-03  0.602E-03  0.182E-03  0.672E-03
  -6.278  0.240E-02  0.121E-04  0.184E-03  0.221E-03  0.648E-03  0.697E-03  0.174E-03  0.464E-03
  -6.178  0.239E-02  0.196E-04  0.173E-03  0.180E-03  0.717E-03  0.851E-03  0.168E-03  0.283E-03
  -6.078  0.249E-02  0.335E-04  0.164E-03  0.166E-03  0.791E-03  0.102E-02  0.159E-03  0.155E-03
  -5.978  0.268E-02  0.554E-04  0.171E-03  0.186E-03  0.894E-03  0.114E-02  0.148E-03  0.896E-04
  -5.878  0.295E-02  0.840E-04  0.207E-03  0.249E-03  0.101E-02  0.118E-02  0.143E-03  0.805E-04
  -5.778  0.326E-02  0.113E-03  0.271E-03  0.370E-03  0.111E-02  0.112E-02  0.151E-03  0.119E-03
  -5.678  0.358E-02  0.137E-03  0.349E-03  0.563E-03  0.117E-02  0.100E-02  0.174E-03  0.192E-03
  -5.578  0.395E-02  0.152E-03  0.430E-03  0.825E-03  0.120E-02  0.864E-03  0.202E-03  0.280E-03
  -5.478  0.434E-02  0.162E-03  0.500E-03  0.111E-02  0.124E-02  0.754E-03  0.227E-03  0.353E-03
  -5.378  0.467E-02  0.171E-03  0.548E-03  0.133E-02  0.129E-02  0.694E-03  0.250E-03  0.391E-03
  -5.278  0.486E-02  0.189E-03  0.564E-03  0.142E-02  0.132E-02  0.697E-03  0.277E-03  0.391E-03
  -5.178  0.496E-02  0.231E-03  0.559E-03  0.138E-02  0.134E-02  0.773E-03  0.310E-03  0.369E-03
  -5.078  0.513E-02  0.319E-03  0.576E-03  0.125E-02  0.137E-02  0.936E-03  0.341E-03  0.342E-03
  -4.978  0.553E-02  0.465E-03  0.671E-03  0.107E-02  0.146E-02  0.118E-02  0.365E-03  0.317E-03
  -4.878  0.618E-02  0.652E-03  0.854E-03  0.905E-03  0.161E-02  0.148E-02  0.384E-03  0.293E-03
  -4.778  0.685E-02  0.832E-03  0.106E-02  0.768E-03  0.176E-02  0.176E-02  0.401E-03  0.268E-03
  -4.678  0.722E-02  0.954E-03  0.116E-02  0.655E-03  0.187E-02  0.193E-02  0.412E-03  0.237E-03
  -4.578  0.712E-02  0.100E-02  0.112E-02  0.553E-03  0.189E-02  0.194E-02  0.409E-03  0.203E-03
  -4.478  0.662E-02  0.984E-03  0.979E-03  0.463E-03  0.179E-02  0.184E-02  0.397E-03  0.171E-03
  -4.378  0.595E-02  0.919E-03  0.840E-03  0.401E-03  0.153E-02  0.172E-02  0.392E-03  0.152E-03
  -4.278  0.535E-02  0.830E-03  0.777E-03  0.385E-03  0.114E-02  0.166E-02  0.415E-03  0.150E-03
  -4.178  0.500E-02  0.745E-03  0.812E-03  0.421E-03  0.743E-03  0.163E-02  0.483E-03  0.163E-03
  -4.078  0.495E-02  0.687E-03  0.923E-03  0.502E-03  0.468E-03  0.159E-02  0.602E-03  0.181E-03
  -3.978  0.515E-02  0.654E-03  0.105E-02  0.600E-03  0.372E-03  0.153E-02  0.754E-03  0.191E-03
  -3.878  0.547E-02  0.630E-03  0.111E-02  0.674E-03  0.456E-03  0.151E-02  0.905E-03  0.185E-03
  -3.778  0.586E-02  0.623E-03  0.109E-02  0.692E-03  0.715E-03  0.157E-02  0.101E-02  0.168E-03
  -3.678  0.644E-02  0.667E-03  0.101E-02  0.659E-03  0.114E-02  0.177E-02  0.104E-02  0.152E-03
  -3.578  0.730E-02  0.789E-03  0.943E-03  0.618E-03  0.170E-02  0.212E-02  0.981E-03  0.146E-03
  -3.478  0.830E-02  0.957E-03  0.915E-03  0.621E-03  0.226E-02  0.251E-02  0.878E-03  0.151E-03
  -3.378  0.918E-02  0.111E-02  0.957E-03  0.712E-03  0.269E-02  0.272E-02  0.823E-03  0.168E-03
  -3.278  0.981E-02  0.121E-02  0.109E-02  0.908E-03  0.290E-02  0.260E-02  0.896E-03  0.197E-03
  -3.178  0.103E-01  0.132E-02  0.132E-02  0.120E-02  0.289E-02  0.220E-02  0.112E-02  0.237E-03
  -3.078  0.108E-01  0.147E-02  0.158E-02  0.154E-02  0.273E-02  0.170E-02  0.145E-02  0.277E-03
  -2.978  0.112E-01  0.169E-02  0.179E-02  0.183E-02  0.249E-02  0.130E-02  0.179E-02  0.299E-03
  -2.878  0.115E-01  0.193E-02  0.187E-02  0.201E-02  0.222E-02  0.108E-02  0.205E-02  0.303E-03
  -2.778  0.115E-01  0.215E-02  0.180E-02  0.207E-02  0.197E-02  0.104E-02  0.215E-02  0.310E-03
  -2.678  0.114E-01  0.236E-02  0.165E-02  0.207E-02  0.176E-02  0.113E-02  0.211E-02  0.350E-03
  -2.578  0.115E-01  0.251E-02  0.154E-02  0.213E-02  0.161E-02  0.127E-02  0.201E-02  0.442E-03
  -2.478  0.118E-01  0.256E-02  0.154E-02  0.231E-02  0.147E-02  0.139E-02  0.198E-02  0.570E-03
  -2.378  0.122E-01  0.241E-02  0.165E-02  0.259E-02  0.130E-02  0.145E-02  0.211E-02  0.698E-03
  -2.278  0.125E-01  0.206E-02  0.182E-02  0.286E-02  0.111E-02  0.143E-02  0.238E-02  0.797E-03
  -2.178  0.124E-01  0.160E-02  0.199E-02  0.303E-02  0.915E-03  0.133E-02  0.267E-02  0.864E-03
  -2.078  0.120E-01  0.116E-02  0.216E-02  0.304E-02  0.745E-03  0.117E-02  0.281E-02  0.910E-03
  -1.978  0.112E-01  0.827E-03  0.228E-02  0.293E-02  0.604E-03  0.975E-03  0.268E-02  0.921E-03
  -1.878  0.988E-02  0.595E-03  0.223E-02  0.268E-02  0.486E-03  0.766E-03  0.227E-02  0.856E-03
  -1.778  0.795E-02  0.443E-03  0.194E-02  0.221E-02  0.397E-03  0.600E-03  0.167E-02  0.689E-03
  -1.678  0.574E-02  0.354E-03  0.144E-02  0.156E-02  0.349E-03  0.519E-03  0.105E-02  0.463E-03
  -1.578  0.383E-02  0.317E-03  0.921E-03  0.904E-03  0.344E-03  0.517E-03  0.576E-03  0.255E-03
  -1.478  0.261E-02  0.319E-03  0.541E-03  0.425E-03  0.365E-03  0.556E-03  0.289E-03  0.118E-03
  -1.378  0.213E-02  0.350E-03  0.364E-03  0.168E-03  0.409E-03  0.614E-03  0.170E-03  0.520E-04
  -1.278  0.233E-02  0.425E-03  0.396E-03  0.723E-04  0.506E-03  0.714E-03  0.183E-03  0.331E-04
  -1.178  0.321E-02  0.562E-03  0.641E-03  0.632E-04  0.693E-03  0.889E-03  0.315E-03  0.435E-04
  -1.078  0.463E-02  0.748E-03  0.109E-02  0.962E-04  0.945E-03  0.110E-02  0.566E-03  0.762E-04
  -0.978  0.620E-02  0.906E-03  0.170E-02  0.152E-03  0.115E-02  0.125E-02  0.919E-03  0.126E-03
  -0.878  0.742E-02  0.949E-03  0.233E-02  0.222E-03  0.120E-02  0.123E-02  0.131E-02  0.181E-03
  -0.778  0.795E-02  0.853E-03  0.285E-02  0.301E-03  0.106E-02  0.104E-02  0.162E-02  0.221E-03
  -0.678  0.775E-02  0.675E-03  0.317E-02  0.378E-03  0.822E-03  0.776E-03  0.170E-02  0.228E-03
  -0.578  0.692E-02  0.489E-03  0.317E-02  0.428E-03  0.580E-03  0.531E-03  0.153E-02  0.200E-03
  -0.478  0.557E-02  0.330E-03  0.280E-02  0.419E-03  0.383E-03  0.339E-03  0.116E-02  0.148E-03
  -0.378  0.393E-02  0.204E-03  0.211E-02  0.339E-03  0.234E-03  0.198E-03  0.750E-03  0.935E-04
  -0.278  0.233E-02  0.111E-03  0.131E-02  0.222E-03  0.127E-03  0.102E-03  0.410E-03  0.498E-04
  -0.178  0.113E-02  0.509E-04  0.659E-03  0.114E-03  0.581E-04  0.447E-04  0.186E-03  0.220E-04
  -0.078  0.441E-03  0.190E-04  0.261E-03  0.459E-04  0.218E-04  0.161E-04  0.695E-04  0.792E-05
   0.022  0.140E-03  0.562E-05  0.819E-04  0.150E-04  0.655E-05  0.463E-05  0.242E-04  0.244E-05
   0.122  0.657E-04  0.133E-05  0.273E-04  0.814E-05  0.160E-05  0.107E-05  0.249E-04  0.137E-05
   0.222  0.157E-03  0.328E-06  0.414E-04  0.249E-04  0.559E-06  0.270E-06  0.860E-04  0.347E-05
   0.322  0.532E-03  0.343E-06  0.140E-03  0.991E-04  0.116E-05  0.372E-06  0.280E-03  0.105E-04
   0.422  0.147E-02  0.863E-06  0.403E-03  0.321E-03  0.364E-05  0.119E-05  0.718E-03  0.264E-04
   0.522  0.326E-02  0.202E-05  0.912E-03  0.838E-03  0.977E-05  0.338E-05  0.144E-02  0.549E-04
   0.622  0.586E-02  0.417E-05  0.165E-02  0.177E-02  0.223E-04  0.820E-05  0.230E-02  0.980E-04
   0.722  0.871E-02  0.811E-05  0.247E-02  0.308E-02  0.448E-04  0.184E-04  0.293E-02  0.155E-03
   0.822  0.111E-01  0.159E-04  0.321E-02  0.445E-02  0.839E-04  0.432E-04  0.309E-02  0.222E-03
   0.922  0.127E-01  0.332E-04  0.386E-02  0.544E-02  0.156E-03  0.112E-03  0.282E-02  0.289E-03
   1.022  0.137E-01  0.708E-04  0.451E-02  0.578E-02  0.293E-03  0.294E-03  0.241E-02  0.343E-03
   1.122  0.144E-01  0.143E-03  0.504E-02  0.554E-02  0.539E-03  0.691E-03  0.203E-02  0.377E-03
   1.222  0.148E-01  0.258E-03  0.519E-02  0.496E-02  0.932E-03  0.137E-02  0.172E-02  0.391E-03
   1.322  0.150E-01  0.405E-03  0.479E-02  0.427E-02  0.150E-02  0.225E-02  0.139E-02  0.382E-03
   1.422  0.149E-01  0.559E-03  0.398E-02  0.362E-02  0.225E-02  0.311E-02  0.102E-02  0.357E-03
   1.522  0.149E-01  0.690E-03  0.309E-02  0.316E-02  0.317E-02  0.374E-02  0.684E-03  0.330E-03
   1.622  0.150E-01  0.782E-03  0.238E-02  0.294E-02  0.409E-02  0.404E-02  0.440E-03  0.319E-03
   1.722  0.150E-01  0.836E-03  0.193E-02  0.285E-02  0.473E-02  0.408E-02  0.298E-03  0.322E-03
   1.822  0.145E-01  0.864E-03  0.164E-02  0.266E-02  0.480E-02  0.395E-02  0.224E-03  0.318E-03
   1.922  0.129E-01  0.885E-03  0.137E-02  0.223E-02  0.426E-02  0.373E-02  0.176E-03  0.283E-03
   2.022  0.106E-01  0.904E-03  0.105E-02  0.163E-02  0.332E-02  0.338E-02  0.132E-03  0.216E-03
   2.122  0.799E-02  0.892E-03  0.708E-03  0.102E-02  0.229E-02  0.285E-02  0.872E-04  0.139E-03
   2.222  0.545E-02  0.804E-03  0.410E-03  0.542E-03  0.141E-02  0.216E-02  0.490E-04  0.755E-04
   2.322  0.331E-02  0.623E-03  0.203E-03  0.242E-03  0.773E-03  0.141E-02  0.230E-04  0.348E-04
   2.422  0.175E-02  0.397E-03  0.852E-04  0.908E-04  0.374E-03  0.780E-03  0.891E-05  0.137E-04
   2.522  0.781E-03  0.203E-03  0.306E-04  0.287E-04  0.156E-03  0.355E-03  0.286E-05  0.468E-05
   2.622  0.286E-03  0.817E-04  0.932E-05  0.768E-05  0.546E-04  0.131E-03  0.769E-06  0.136E-05
   2.722  0.842E-04  0.256E-04  0.239E-05  0.176E-05  0.156E-04  0.383E-04  0.174E-06  0.334E-06
   2.822  0.196E-04  0.624E-05  0.503E-06  0.341E-06  0.354E-05  0.886E-05  0.333E-07  0.674E-07
   2.922  0.356E-05  0.117E-05  0.858E-07  0.554E-07  0.633E-06  0.160E-05  0.531E-08  0.110E-07
   3.022  0.503E-06  0.170E-06  0.116E-07  0.732E-08  0.879E-07  0.224E-06  0.690E-09  0.143E-08
   3.122  0.548E-07  0.189E-07  0.124E-08  0.773E-09  0.944E-08  0.242E-07  0.719E-10  0.146E-09
