# E (eV)   ldos(E)   pdos(E)    pdos(E)    pdos(E)   
 -16.578  0.688E-07  0.449E-07  0.154E-07  0.852E-08
 -16.478  0.586E-06  0.377E-06  0.133E-06  0.762E-07
 -16.378  0.385E-05  0.243E-05  0.888E-06  0.531E-06
 -16.278  0.196E-04  0.121E-04  0.461E-05  0.289E-05
 -16.178  0.778E-04  0.466E-04  0.188E-04  0.125E-04
 -16.078  0.243E-03  0.140E-03  0.609E-04  0.428E-04
 -15.978  0.607E-03  0.328E-03  0.159E-03  0.119E-03
 -15.878  0.124E-02  0.616E-03  0.346E-03  0.275E-03
 -15.778  0.212E-02  0.948E-03  0.638E-03  0.534E-03
 -15.678  0.317E-02  0.125E-02  0.103E-02  0.891E-03
 -15.578  0.423E-02  0.148E-02  0.147E-02  0.129E-02
 -15.478  0.512E-02  0.164E-02  0.186E-02  0.161E-02
 -15.378  0.558E-02  0.173E-02  0.209E-02  0.176E-02
 -15.278  0.550E-02  0.167E-02  0.211E-02  0.172E-02
 -15.178  0.509E-02  0.145E-02  0.197E-02  0.167E-02
 -15.078  0.490E-02  0.116E-02  0.179E-02  0.195E-02
 -14.978  0.554E-02  0.946E-03  0.176E-02  0.284E-02
 -14.878  0.733E-02  0.943E-03  0.198E-02  0.441E-02
 -14.778  0.100E-01  0.124E-02  0.247E-02  0.631E-02
 -14.678  0.128E-01  0.186E-02  0.313E-02  0.785E-02
 -14.578  0.150E-01  0.271E-02  0.385E-02  0.842E-02
 -14.478  0.161E-01  0.361E-02  0.453E-02  0.798E-02
 -14.378  0.166E-01  0.440E-02  0.508E-02  0.707E-02
 -14.278  0.167E-01  0.498E-02  0.540E-02  0.628E-02
 -14.178  0.167E-01  0.528E-02  0.546E-02  0.591E-02
 -14.078  0.167E-01  0.523E-02  0.546E-02  0.597E-02
 -13.978  0.167E-01  0.483E-02  0.564E-02  0.620E-02
 -13.878  0.167E-01  0.427E-02  0.614E-02  0.625E-02
 -13.778  0.165E-01  0.382E-02  0.677E-02  0.595E-02
 -13.678  0.163E-01  0.369E-02  0.721E-02  0.542E-02
 -13.578  0.161E-01  0.390E-02  0.732E-02  0.484E-02
 -13.478  0.159E-01  0.439E-02  0.721E-02  0.431E-02
 -13.378  0.159E-01  0.496E-02  0.705E-02  0.389E-02
 -13.278  0.155E-01  0.520E-02  0.672E-02  0.353E-02
 -13.178  0.140E-01  0.480E-02  0.608E-02  0.314E-02
 -13.078  0.122E-01  0.395E-02  0.543E-02  0.279E-02
 -12.978  0.112E-01  0.324E-02  0.530E-02  0.270E-02
 -12.878  0.114E-01  0.295E-02  0.562E-02  0.282E-02
 -12.778  0.112E-01  0.277E-02  0.560E-02  0.278E-02
 -12.678  0.925E-02  0.231E-02  0.464E-02  0.230E-02
 -12.578  0.608E-02  0.154E-02  0.303E-02  0.150E-02
 -12.478  0.309E-02  0.803E-03  0.153E-02  0.761E-03
 -12.378  0.121E-02  0.320E-03  0.591E-03  0.296E-03
 -12.278  0.361E-03  0.977E-04  0.175E-03  0.881E-04
 -12.178  0.826E-04  0.228E-04  0.397E-04  0.201E-04
 -12.078  0.144E-04  0.405E-05  0.690E-05  0.350E-05
 -11.978  0.193E-05  0.551E-06  0.915E-06  0.466E-06
 -11.878  0.198E-06  0.572E-07  0.929E-07  0.475E-07
 -11.778  0.154E-07  0.453E-08  0.720E-08  0.371E-08
 -11.678  0.922E-09  0.274E-09  0.427E-09  0.221E-09
 -11.578  0.421E-10  0.126E-10  0.194E-10  0.101E-10
 -11.478  0.147E-11  0.446E-12  0.671E-12  0.350E-12
 -11.378  0.387E-13  0.120E-13  0.175E-13  0.920E-14
 -11.278  0.000E+00  0.000E+00  0.000E+00  0.000E+00
 -11.178  0.000E+00  0.000E+00  0.000E+00  0.000E+00
 -11.078  0.000E+00  0.000E+00  0.000E+00  0.000E+00
 -10.978  0.000E+00  0.000E+00  0.000E+00  0.000E+00
 -10.878  0.000E+00  0.000E+00  0.000E+00  0.000E+00
 -10.778  0.000E+00  0.000E+00  0.000E+00  0.000E+00
 -10.678  0.000E+00  0.000E+00  0.000E+00  0.000E+00
 -10.578  0.000E+00  0.000E+00  0.000E+00  0.000E+00
 -10.478  0.000E+00  0.000E+00  0.000E+00  0.000E+00
 -10.378  0.000E+00  0.000E+00  0.000E+00  0.000E+00
 -10.278  0.000E+00  0.000E+00  0.000E+00  0.000E+00
 -10.178  0.000E+00  0.000E+00  0.000E+00  0.000E+00
 -10.078  0.000E+00  0.000E+00  0.000E+00  0.000E+00
  -9.978  0.000E+00  0.000E+00  0.000E+00  0.000E+00
  -9.878  0.000E+00  0.000E+00  0.000E+00  0.000E+00
  -9.778  0.000E+00  0.000E+00  0.000E+00  0.000E+00
  -9.678  0.000E+00  0.000E+00  0.000E+00  0.000E+00
  -9.578  0.000E+00  0.000E+00  0.000E+00  0.000E+00
  -9.478  0.000E+00  0.000E+00  0.000E+00  0.000E+00
  -9.378  0.000E+00  0.000E+00  0.000E+00  0.000E+00
  -9.278  0.000E+00  0.000E+00  0.000E+00  0.000E+00
  -9.178  0.000E+00  0.000E+00  0.000E+00  0.000E+00
  -9.078  0.000E+00  0.000E+00  0.000E+00  0.000E+00
  -8.978  0.000E+00  0.000E+00  0.000E+00  0.000E+00
  -8.878  0.923E-14  0.509E-16  0.672E-14  0.245E-14
  -8.778  0.450E-12  0.254E-14  0.320E-12  0.128E-12
  -8.678  0.145E-10  0.822E-13  0.103E-10  0.415E-11
  -8.578  0.359E-09  0.204E-11  0.253E-09  0.104E-09
  -8.478  0.679E-08  0.389E-10  0.476E-08  0.199E-08
  -8.378  0.987E-07  0.570E-09  0.687E-07  0.294E-07
  -8.278  0.110E-05  0.644E-08  0.762E-06  0.334E-06
  -8.178  0.947E-05  0.565E-07  0.648E-05  0.293E-05
  -8.078  0.629E-04  0.388E-06  0.425E-04  0.200E-04
  -7.978  0.324E-03  0.212E-05  0.215E-03  0.107E-03
  -7.878  0.131E-02  0.959E-05  0.848E-03  0.453E-03
  -7.778  0.421E-02  0.374E-04  0.262E-02  0.155E-02
  -7.678  0.110E-01  0.134E-03  0.642E-02  0.442E-02
  -7.578  0.241E-01  0.452E-03  0.129E-01  0.107E-01
  -7.478  0.462E-01  0.144E-02  0.220E-01  0.227E-01
  -7.378  0.800E-01  0.416E-02  0.335E-01  0.424E-01
  -7.278  0.128E+00  0.106E-01  0.478E-01  0.699E-01
  -7.178  0.192E+00  0.236E-01  0.660E-01  0.102E+00
  -7.078  0.268E+00  0.451E-01  0.888E-01  0.134E+00
  -6.978  0.348E+00  0.737E-01  0.115E+00  0.159E+00
  -6.878  0.420E+00  0.103E+00  0.141E+00  0.176E+00
  -6.778  0.472E+00  0.125E+00  0.161E+00  0.186E+00
  -6.678  0.500E+00  0.133E+00  0.172E+00  0.195E+00
  -6.578  0.512E+00  0.132E+00  0.174E+00  0.205E+00
  -6.478  0.518E+00  0.133E+00  0.173E+00  0.213E+00
  -6.378  0.518E+00  0.137E+00  0.168E+00  0.213E+00
  -6.278  0.500E+00  0.138E+00  0.158E+00  0.203E+00
  -6.178  0.458E+00  0.128E+00  0.143E+00  0.187E+00
  -6.078  0.407E+00  0.108E+00  0.127E+00  0.173E+00
  -5.978  0.373E+00  0.881E-01  0.118E+00  0.167E+00
  -5.878  0.366E+00  0.795E-01  0.119E+00  0.167E+00
  -5.778  0.378E+00  0.848E-01  0.125E+00  0.168E+00
  -5.678  0.396E+00  0.988E-01  0.131E+00  0.167E+00
  -5.578  0.416E+00  0.112E+00  0.137E+00  0.167E+00
  -5.478  0.443E+00  0.119E+00  0.149E+00  0.175E+00
  -5.378  0.477E+00  0.123E+00  0.167E+00  0.188E+00
  -5.278  0.512E+00  0.133E+00  0.186E+00  0.194E+00
  -5.178  0.545E+00  0.162E+00  0.197E+00  0.186E+00
  -5.078  0.585E+00  0.217E+00  0.198E+00  0.169E+00
  -4.978  0.647E+00  0.299E+00  0.192E+00  0.156E+00
  -4.878  0.740E+00  0.394E+00  0.189E+00  0.157E+00
  -4.778  0.843E+00  0.474E+00  0.199E+00  0.170E+00
  -4.678  0.916E+00  0.507E+00  0.220E+00  0.190E+00
  -4.578  0.931E+00  0.481E+00  0.241E+00  0.209E+00
  -4.478  0.889E+00  0.416E+00  0.251E+00  0.222E+00
  -4.378  0.811E+00  0.343E+00  0.242E+00  0.226E+00
  -4.278  0.722E+00  0.284E+00  0.216E+00  0.221E+00
  -4.178  0.635E+00  0.243E+00  0.184E+00  0.208E+00
  -4.078  0.564E+00  0.216E+00  0.159E+00  0.189E+00
  -3.978  0.526E+00  0.202E+00  0.149E+00  0.175E+00
  -3.878  0.529E+00  0.198E+00  0.157E+00  0.173E+00
  -3.778  0.564E+00  0.199E+00  0.182E+00  0.183E+00
  -3.678  0.614E+00  0.202E+00  0.217E+00  0.195E+00
  -3.578  0.665E+00  0.211E+00  0.254E+00  0.200E+00
  -3.478  0.706E+00  0.225E+00  0.282E+00  0.199E+00
  -3.378  0.733E+00  0.240E+00  0.293E+00  0.200E+00
  -3.278  0.758E+00  0.251E+00  0.290E+00  0.218E+00
  -3.178  0.800E+00  0.262E+00  0.281E+00  0.257E+00
  -3.078  0.858E+00  0.274E+00  0.274E+00  0.310E+00
  -2.978  0.905E+00  0.284E+00  0.267E+00  0.355E+00
  -2.878  0.919E+00  0.287E+00  0.257E+00  0.375E+00
  -2.778  0.903E+00  0.290E+00  0.245E+00  0.368E+00
  -2.678  0.874E+00  0.300E+00  0.233E+00  0.340E+00
  -2.578  0.839E+00  0.322E+00  0.222E+00  0.295E+00
  -2.478  0.790E+00  0.345E+00  0.204E+00  0.241E+00
  -2.378  0.718E+00  0.352E+00  0.176E+00  0.190E+00
  -2.278  0.627E+00  0.332E+00  0.141E+00  0.153E+00
  -2.178  0.538E+00  0.292E+00  0.109E+00  0.137E+00
  -2.078  0.479E+00  0.245E+00  0.919E-01  0.142E+00
  -1.978  0.458E+00  0.204E+00  0.938E-01  0.160E+00
  -1.878  0.460E+00  0.175E+00  0.110E+00  0.174E+00
  -1.778  0.466E+00  0.161E+00  0.135E+00  0.170E+00
  -1.678  0.482E+00  0.168E+00  0.167E+00  0.147E+00
  -1.578  0.513E+00  0.194E+00  0.201E+00  0.118E+00
  -1.478  0.548E+00  0.225E+00  0.226E+00  0.968E-01
  -1.378  0.573E+00  0.252E+00  0.235E+00  0.857E-01
  -1.278  0.613E+00  0.291E+00  0.237E+00  0.843E-01
  -1.178  0.712E+00  0.365E+00  0.254E+00  0.929E-01
  -1.078  0.874E+00  0.470E+00  0.295E+00  0.109E+00
  -0.978  0.103E+01  0.558E+00  0.344E+00  0.125E+00
  -0.878  0.109E+01  0.577E+00  0.378E+00  0.131E+00
  -0.778  0.103E+01  0.515E+00  0.391E+00  0.129E+00
  -0.678  0.918E+00  0.406E+00  0.388E+00  0.124E+00
  -0.578  0.780E+00  0.290E+00  0.372E+00  0.119E+00
  -0.478  0.627E+00  0.187E+00  0.331E+00  0.109E+00
  -0.378  0.452E+00  0.108E+00  0.257E+00  0.877E-01
  -0.278  0.277E+00  0.534E-01  0.166E+00  0.584E-01
  -0.178  0.139E+00  0.223E-01  0.856E-01  0.310E-01
  -0.078  0.553E-01  0.768E-02  0.348E-01  0.129E-01
   0.022  0.175E-01  0.235E-02  0.110E-01  0.417E-02
   0.122  0.571E-02  0.167E-02  0.281E-02  0.123E-02
   0.222  0.728E-02  0.511E-02  0.109E-02  0.108E-02
   0.322  0.217E-01  0.166E-01  0.211E-02  0.305E-02
   0.422  0.569E-01  0.429E-01  0.575E-02  0.826E-02
   0.522  0.119E+00  0.877E-01  0.131E-01  0.185E-01
   0.622  0.202E+00  0.143E+00  0.249E-01  0.348E-01
   0.722  0.284E+00  0.187E+00  0.402E-01  0.572E-01
   0.822  0.345E+00  0.201E+00  0.578E-01  0.856E-01
   0.922  0.385E+00  0.187E+00  0.770E-01  0.121E+00
   1.022  0.420E+00  0.159E+00  0.976E-01  0.163E+00
   1.122  0.458E+00  0.135E+00  0.117E+00  0.206E+00
   1.222  0.487E+00  0.115E+00  0.131E+00  0.241E+00
   1.322  0.489E+00  0.984E-01  0.136E+00  0.255E+00
   1.422  0.466E+00  0.835E-01  0.135E+00  0.248E+00
   1.522  0.441E+00  0.752E-01  0.136E+00  0.230E+00
   1.622  0.431E+00  0.773E-01  0.143E+00  0.211E+00
   1.722  0.432E+00  0.872E-01  0.149E+00  0.195E+00
   1.822  0.419E+00  0.961E-01  0.146E+00  0.178E+00
   1.922  0.375E+00  0.947E-01  0.126E+00  0.154E+00
   2.022  0.298E+00  0.802E-01  0.962E-01  0.122E+00
   2.122  0.208E+00  0.578E-01  0.639E-01  0.866E-01
   2.222  0.128E+00  0.357E-01  0.371E-01  0.549E-01
   2.322  0.688E-01  0.191E-01  0.188E-01  0.308E-01
   2.422  0.325E-01  0.897E-02  0.830E-02  0.152E-01
   2.522  0.132E-01  0.365E-02  0.316E-02  0.643E-02
   2.622  0.456E-02  0.126E-02  0.102E-02  0.227E-02
   2.722  0.129E-02  0.360E-03  0.274E-03  0.655E-03
   2.822  0.293E-03  0.825E-04  0.596E-04  0.151E-03
   2.922  0.525E-04  0.150E-04  0.103E-04  0.272E-04
   3.022  0.736E-05  0.211E-05  0.141E-05  0.384E-05
   3.122  0.800E-06  0.231E-06  0.149E-06  0.419E-06
