# E (eV)   ldos(E)   pdos(E)    pdos(E)    pdos(E)   
 -16.578  0.698E-07  0.440E-07  0.603E-08  0.198E-07
 -16.478  0.595E-06  0.368E-06  0.573E-07  0.170E-06
 -16.378  0.392E-05  0.237E-05  0.427E-06  0.113E-05
 -16.278  0.201E-04  0.117E-04  0.251E-05  0.581E-05
 -16.178  0.801E-04  0.449E-04  0.118E-04  0.234E-04
 -16.078  0.252E-03  0.133E-03  0.447E-04  0.744E-04
 -15.978  0.637E-03  0.309E-03  0.139E-03  0.189E-03
 -15.878  0.132E-02  0.569E-03  0.359E-03  0.391E-03
 -15.778  0.231E-02  0.859E-03  0.775E-03  0.677E-03
 -15.678  0.355E-02  0.113E-02  0.141E-02  0.102E-02
 -15.578  0.492E-02  0.143E-02  0.214E-02  0.135E-02
 -15.478  0.618E-02  0.183E-02  0.273E-02  0.162E-02
 -15.378  0.697E-02  0.225E-02  0.298E-02  0.174E-02
 -15.278  0.703E-02  0.247E-02  0.287E-02  0.169E-02
 -15.178  0.645E-02  0.232E-02  0.262E-02  0.151E-02
 -15.078  0.576E-02  0.193E-02  0.247E-02  0.136E-02
 -14.978  0.559E-02  0.158E-02  0.264E-02  0.137E-02
 -14.878  0.638E-02  0.155E-02  0.321E-02  0.161E-02
 -14.778  0.820E-02  0.196E-02  0.421E-02  0.203E-02
 -14.678  0.108E-01  0.275E-02  0.548E-02  0.254E-02
 -14.578  0.135E-01  0.371E-02  0.667E-02  0.308E-02
 -14.478  0.156E-01  0.458E-02  0.740E-02  0.365E-02
 -14.378  0.170E-01  0.529E-02  0.751E-02  0.424E-02
 -14.278  0.178E-01  0.582E-02  0.719E-02  0.481E-02
 -14.178  0.182E-01  0.609E-02  0.681E-02  0.531E-02
 -14.078  0.184E-01  0.595E-02  0.658E-02  0.583E-02
 -13.978  0.184E-01  0.544E-02  0.642E-02  0.649E-02
 -13.878  0.182E-01  0.478E-02  0.611E-02  0.734E-02
 -13.778  0.180E-01  0.425E-02  0.553E-02  0.817E-02
 -13.678  0.176E-01  0.408E-02  0.474E-02  0.874E-02
 -13.578  0.172E-01  0.435E-02  0.386E-02  0.899E-02
 -13.478  0.171E-01  0.500E-02  0.303E-02  0.907E-02
 -13.378  0.171E-01  0.570E-02  0.237E-02  0.902E-02
 -13.278  0.163E-01  0.581E-02  0.193E-02  0.860E-02
 -13.178  0.143E-01  0.499E-02  0.168E-02  0.767E-02
 -13.078  0.119E-01  0.358E-02  0.160E-02  0.674E-02
 -12.978  0.105E-01  0.231E-02  0.171E-02  0.648E-02
 -12.878  0.103E-01  0.160E-02  0.192E-02  0.677E-02
 -12.778  0.985E-02  0.127E-02  0.194E-02  0.664E-02
 -12.678  0.800E-02  0.984E-03  0.160E-02  0.541E-02
 -12.578  0.516E-02  0.643E-03  0.104E-02  0.348E-02
 -12.478  0.258E-02  0.331E-03  0.520E-03  0.173E-02
 -12.378  0.989E-03  0.131E-03  0.200E-03  0.659E-03
 -12.278  0.291E-03  0.396E-04  0.589E-04  0.193E-03
 -12.178  0.657E-04  0.918E-05  0.133E-04  0.432E-04
 -12.078  0.113E-04  0.162E-05  0.229E-05  0.742E-05
 -11.978  0.150E-05  0.219E-06  0.303E-06  0.976E-06
 -11.878  0.152E-06  0.226E-07  0.306E-07  0.982E-07
 -11.778  0.117E-07  0.178E-08  0.237E-08  0.757E-08
 -11.678  0.693E-09  0.107E-09  0.140E-09  0.446E-09
 -11.578  0.314E-10  0.493E-11  0.633E-11  0.201E-10
 -11.478  0.109E-11  0.173E-12  0.219E-12  0.694E-12
 -11.378  0.283E-13  0.463E-14  0.570E-14  0.180E-13
 -11.278  0.000E+00  0.000E+00  0.000E+00  0.000E+00
 -11.178  0.000E+00  0.000E+00  0.000E+00  0.000E+00
 -11.078  0.000E+00  0.000E+00  0.000E+00  0.000E+00
 -10.978  0.000E+00  0.000E+00  0.000E+00  0.000E+00
 -10.878  0.000E+00  0.000E+00  0.000E+00  0.000E+00
 -10.778  0.000E+00  0.000E+00  0.000E+00  0.000E+00
 -10.678  0.000E+00  0.000E+00  0.000E+00  0.000E+00
 -10.578  0.000E+00  0.000E+00  0.000E+00  0.000E+00
 -10.478  0.000E+00  0.000E+00  0.000E+00  0.000E+00
 -10.378  0.000E+00  0.000E+00  0.000E+00  0.000E+00
 -10.278  0.000E+00  0.000E+00  0.000E+00  0.000E+00
 -10.178  0.000E+00  0.000E+00  0.000E+00  0.000E+00
 -10.078  0.000E+00  0.000E+00  0.000E+00  0.000E+00
  -9.978  0.000E+00  0.000E+00  0.000E+00  0.000E+00
  -9.878  0.000E+00  0.000E+00  0.000E+00  0.000E+00
  -9.778  0.000E+00  0.000E+00  0.000E+00  0.000E+00
  -9.678  0.000E+00  0.000E+00  0.000E+00  0.000E+00
  -9.578  0.000E+00  0.000E+00  0.000E+00  0.000E+00
  -9.478  0.000E+00  0.000E+00  0.000E+00  0.000E+00
  -9.378  0.000E+00  0.000E+00  0.000E+00  0.000E+00
  -9.278  0.000E+00  0.000E+00  0.000E+00  0.000E+00
  -9.178  0.000E+00  0.000E+00  0.000E+00  0.000E+00
  -9.078  0.000E+00  0.000E+00  0.000E+00  0.000E+00
  -8.978  0.000E+00  0.000E+00  0.000E+00  0.000E+00
  -8.878  0.130E-13  0.205E-16  0.117E-13  0.131E-14
  -8.778  0.628E-12  0.111E-14  0.564E-12  0.633E-13
  -8.678  0.202E-10  0.363E-13  0.181E-10  0.204E-11
  -8.578  0.498E-09  0.914E-12  0.447E-09  0.506E-10
  -8.478  0.941E-08  0.177E-10  0.843E-08  0.962E-09
  -8.378  0.136E-06  0.263E-09  0.122E-06  0.141E-07
  -8.278  0.151E-05  0.302E-08  0.135E-05  0.159E-06
  -8.178  0.129E-04  0.270E-07  0.115E-04  0.139E-05
  -8.078  0.854E-04  0.189E-06  0.757E-04  0.946E-05
  -7.978  0.436E-03  0.107E-05  0.384E-03  0.510E-04
  -7.878  0.173E-02  0.502E-05  0.151E-02  0.221E-03
  -7.778  0.545E-02  0.212E-04  0.464E-02  0.785E-03
  -7.678  0.138E-01  0.869E-04  0.113E-01  0.235E-02
  -7.578  0.290E-01  0.352E-03  0.226E-01  0.599E-02
  -7.478  0.528E-01  0.135E-02  0.383E-01  0.132E-01
  -7.378  0.872E-01  0.452E-02  0.577E-01  0.250E-01
  -7.278  0.135E+00  0.128E-01  0.811E-01  0.414E-01
  -7.178  0.199E+00  0.298E-01  0.109E+00  0.609E-01
  -7.078  0.277E+00  0.569E-01  0.137E+00  0.829E-01
  -6.978  0.358E+00  0.893E-01  0.161E+00  0.108E+00
  -6.878  0.427E+00  0.117E+00  0.175E+00  0.135E+00
  -6.778  0.473E+00  0.131E+00  0.182E+00  0.159E+00
  -6.678  0.498E+00  0.135E+00  0.190E+00  0.173E+00
  -6.578  0.517E+00  0.137E+00  0.205E+00  0.175E+00
  -6.478  0.540E+00  0.147E+00  0.224E+00  0.170E+00
  -6.378  0.557E+00  0.161E+00  0.232E+00  0.164E+00
  -6.278  0.543E+00  0.167E+00  0.219E+00  0.157E+00
  -6.178  0.491E+00  0.154E+00  0.191E+00  0.146E+00
  -6.078  0.423E+00  0.129E+00  0.165E+00  0.129E+00
  -5.978  0.376E+00  0.109E+00  0.157E+00  0.110E+00
  -5.878  0.369E+00  0.106E+00  0.167E+00  0.972E-01
  -5.778  0.390E+00  0.120E+00  0.177E+00  0.927E-01
  -5.678  0.414E+00  0.140E+00  0.175E+00  0.983E-01
  -5.578  0.430E+00  0.153E+00  0.163E+00  0.114E+00
  -5.478  0.446E+00  0.153E+00  0.155E+00  0.138E+00
  -5.378  0.473E+00  0.154E+00  0.155E+00  0.164E+00
  -5.278  0.515E+00  0.168E+00  0.160E+00  0.188E+00
  -5.178  0.565E+00  0.203E+00  0.161E+00  0.201E+00
  -5.078  0.618E+00  0.256E+00  0.163E+00  0.199E+00
  -4.978  0.682E+00  0.319E+00  0.176E+00  0.186E+00
  -4.878  0.767E+00  0.385E+00  0.206E+00  0.176E+00
  -4.778  0.865E+00  0.437E+00  0.245E+00  0.183E+00
  -4.678  0.941E+00  0.454E+00  0.275E+00  0.212E+00
  -4.578  0.958E+00  0.427E+00  0.287E+00  0.244E+00
  -4.478  0.905E+00  0.363E+00  0.282E+00  0.259E+00
  -4.378  0.801E+00  0.284E+00  0.274E+00  0.243E+00
  -4.278  0.680E+00  0.212E+00  0.267E+00  0.200E+00
  -4.178  0.571E+00  0.161E+00  0.258E+00  0.153E+00
  -4.078  0.494E+00  0.135E+00  0.240E+00  0.120E+00
  -3.978  0.454E+00  0.129E+00  0.215E+00  0.110E+00
  -3.878  0.445E+00  0.133E+00  0.194E+00  0.118E+00
  -3.778  0.452E+00  0.139E+00  0.179E+00  0.134E+00
  -3.678  0.469E+00  0.143E+00  0.172E+00  0.154E+00
  -3.578  0.497E+00  0.148E+00  0.174E+00  0.175E+00
  -3.478  0.543E+00  0.157E+00  0.187E+00  0.198E+00
  -3.378  0.609E+00  0.175E+00  0.217E+00  0.218E+00
  -3.278  0.695E+00  0.204E+00  0.262E+00  0.229E+00
  -3.178  0.789E+00  0.242E+00  0.314E+00  0.233E+00
  -3.078  0.872E+00  0.280E+00  0.359E+00  0.232E+00
  -2.978  0.920E+00  0.303E+00  0.385E+00  0.232E+00
  -2.878  0.934E+00  0.310E+00  0.390E+00  0.234E+00
  -2.778  0.937E+00  0.316E+00  0.381E+00  0.240E+00
  -2.678  0.942E+00  0.336E+00  0.358E+00  0.248E+00
  -2.578  0.946E+00  0.373E+00  0.317E+00  0.255E+00
  -2.478  0.929E+00  0.412E+00  0.260E+00  0.257E+00
  -2.378  0.882E+00  0.432E+00  0.201E+00  0.249E+00
  -2.278  0.807E+00  0.420E+00  0.153E+00  0.234E+00
  -2.178  0.721E+00  0.379E+00  0.127E+00  0.215E+00
  -2.078  0.643E+00  0.326E+00  0.123E+00  0.194E+00
  -1.978  0.577E+00  0.273E+00  0.131E+00  0.173E+00
  -1.878  0.510E+00  0.224E+00  0.136E+00  0.150E+00
  -1.778  0.429E+00  0.176E+00  0.125E+00  0.128E+00
  -1.678  0.342E+00  0.136E+00  0.967E-01  0.110E+00
  -1.578  0.271E+00  0.108E+00  0.610E-01  0.102E+00
  -1.478  0.230E+00  0.932E-01  0.316E-01  0.105E+00
  -1.378  0.227E+00  0.876E-01  0.142E-01  0.125E+00
  -1.278  0.276E+00  0.889E-01  0.688E-02  0.180E+00
  -1.178  0.397E+00  0.103E+00  0.558E-02  0.289E+00
  -1.078  0.589E+00  0.137E+00  0.747E-02  0.444E+00
  -0.978  0.800E+00  0.194E+00  0.113E-01  0.594E+00
  -0.878  0.948E+00  0.256E+00  0.162E-01  0.676E+00
  -0.778  0.974E+00  0.288E+00  0.213E-01  0.665E+00
  -0.678  0.882E+00  0.266E+00  0.248E-01  0.590E+00
  -0.578  0.720E+00  0.200E+00  0.254E-01  0.494E+00
  -0.478  0.537E+00  0.123E+00  0.222E-01  0.392E+00
  -0.378  0.362E+00  0.641E-01  0.164E-01  0.281E+00
  -0.278  0.212E+00  0.290E-01  0.990E-02  0.173E+00
  -0.178  0.104E+00  0.116E-01  0.483E-02  0.873E-01
  -0.078  0.408E-01  0.405E-02  0.187E-02  0.349E-01
   0.022  0.128E-01  0.121E-02  0.609E-03  0.109E-01
   0.122  0.352E-02  0.444E-03  0.367E-03  0.271E-02
   0.222  0.251E-02  0.743E-03  0.987E-03  0.784E-03
   0.322  0.668E-02  0.234E-02  0.316E-02  0.117E-02
   0.422  0.183E-01  0.647E-02  0.846E-02  0.334E-02
   0.522  0.422E-01  0.150E-01  0.191E-01  0.805E-02
   0.622  0.834E-01  0.302E-01  0.374E-01  0.158E-01
   0.722  0.145E+00  0.534E-01  0.653E-01  0.261E-01
   0.822  0.225E+00  0.843E-01  0.103E+00  0.379E-01
   0.922  0.318E+00  0.119E+00  0.148E+00  0.520E-01
   1.022  0.412E+00  0.150E+00  0.191E+00  0.711E-01
   1.122  0.494E+00  0.173E+00  0.225E+00  0.964E-01
   1.222  0.549E+00  0.183E+00  0.242E+00  0.123E+00
   1.322  0.566E+00  0.181E+00  0.240E+00  0.144E+00
   1.422  0.549E+00  0.170E+00  0.222E+00  0.158E+00
   1.522  0.523E+00  0.156E+00  0.197E+00  0.170E+00
   1.622  0.509E+00  0.143E+00  0.179E+00  0.187E+00
   1.722  0.502E+00  0.134E+00  0.169E+00  0.199E+00
   1.822  0.477E+00  0.123E+00  0.159E+00  0.194E+00
   1.922  0.413E+00  0.107E+00  0.142E+00  0.164E+00
   2.022  0.320E+00  0.839E-01  0.116E+00  0.120E+00
   2.122  0.219E+00  0.592E-01  0.852E-01  0.748E-01
   2.222  0.134E+00  0.372E-01  0.561E-01  0.404E-01
   2.322  0.724E-01  0.207E-01  0.328E-01  0.189E-01
   2.422  0.344E-01  0.101E-01  0.168E-01  0.762E-02
   2.522  0.141E-01  0.419E-02  0.728E-02  0.266E-02
   2.622  0.487E-02  0.146E-02  0.262E-02  0.792E-03
   2.722  0.137E-02  0.413E-03  0.763E-03  0.198E-03
   2.822  0.311E-03  0.937E-04  0.176E-03  0.408E-04
   2.922  0.556E-04  0.168E-04  0.320E-04  0.677E-05
   3.022  0.775E-05  0.234E-05  0.452E-05  0.890E-06
   3.122  0.839E-06  0.253E-06  0.495E-06  0.917E-07
