# E (eV)   ldos(E)   pdos(E)    pdos(E)    pdos(E)   
 -16.578  0.152E-06  0.140E-06  0.691E-08  0.509E-08
 -16.478  0.128E-05  0.118E-05  0.623E-07  0.472E-07
 -16.378  0.836E-05  0.758E-05  0.437E-06  0.341E-06
 -16.278  0.421E-04  0.377E-04  0.241E-05  0.193E-05
 -16.178  0.164E-03  0.145E-03  0.106E-04  0.861E-05
 -16.078  0.501E-03  0.434E-03  0.371E-04  0.305E-04
 -15.978  0.121E-02  0.102E-02  0.107E-03  0.874E-04
 -15.878  0.235E-02  0.189E-02  0.255E-03  0.206E-03
 -15.778  0.377E-02  0.285E-02  0.515E-03  0.412E-03
 -15.678  0.519E-02  0.359E-02  0.882E-03  0.722E-03
 -15.578  0.636E-02  0.393E-02  0.128E-02  0.114E-02
 -15.478  0.713E-02  0.390E-02  0.160E-02  0.163E-02
 -15.378  0.744E-02  0.358E-02  0.175E-02  0.211E-02
 -15.278  0.736E-02  0.311E-02  0.177E-02  0.247E-02
 -15.178  0.722E-02  0.272E-02  0.181E-02  0.269E-02
 -15.078  0.753E-02  0.267E-02  0.200E-02  0.286E-02
 -14.978  0.857E-02  0.310E-02  0.233E-02  0.314E-02
 -14.878  0.102E-01  0.393E-02  0.272E-02  0.358E-02
 -14.778  0.122E-01  0.491E-02  0.316E-02  0.415E-02
 -14.678  0.142E-01  0.575E-02  0.371E-02  0.477E-02
 -14.578  0.159E-01  0.619E-02  0.434E-02  0.534E-02
 -14.478  0.171E-01  0.622E-02  0.498E-02  0.589E-02
 -14.378  0.182E-01  0.613E-02  0.556E-02  0.654E-02
 -14.278  0.197E-01  0.628E-02  0.614E-02  0.728E-02
 -14.178  0.214E-01  0.674E-02  0.677E-02  0.787E-02
 -14.078  0.225E-01  0.720E-02  0.734E-02  0.796E-02
 -13.978  0.224E-01  0.725E-02  0.769E-02  0.743E-02
 -13.878  0.210E-01  0.672E-02  0.776E-02  0.649E-02
 -13.778  0.191E-01  0.589E-02  0.763E-02  0.554E-02
 -13.678  0.176E-01  0.526E-02  0.745E-02  0.488E-02
 -13.578  0.171E-01  0.509E-02  0.737E-02  0.469E-02
 -13.478  0.178E-01  0.540E-02  0.744E-02  0.493E-02
 -13.378  0.188E-01  0.601E-02  0.742E-02  0.538E-02
 -13.278  0.188E-01  0.644E-02  0.685E-02  0.550E-02
 -13.178  0.167E-01  0.617E-02  0.562E-02  0.488E-02
 -13.078  0.131E-01  0.517E-02  0.425E-02  0.363E-02
 -12.978  0.976E-02  0.405E-02  0.338E-02  0.233E-02
 -12.878  0.778E-02  0.331E-02  0.304E-02  0.143E-02
 -12.778  0.650E-02  0.283E-02  0.274E-02  0.927E-03
 -12.678  0.496E-02  0.223E-02  0.213E-02  0.608E-03
 -12.578  0.312E-02  0.145E-02  0.132E-02  0.354E-03
 -12.478  0.154E-02  0.741E-03  0.633E-03  0.168E-03
 -12.378  0.588E-03  0.292E-03  0.234E-03  0.624E-04
 -12.278  0.172E-03  0.881E-04  0.663E-04  0.179E-04
 -12.178  0.387E-04  0.203E-04  0.144E-04  0.393E-05
 -12.078  0.666E-05  0.358E-05  0.241E-05  0.663E-06
 -11.978  0.877E-06  0.483E-06  0.308E-06  0.857E-07
 -11.878  0.883E-07  0.496E-07  0.302E-07  0.849E-08
 -11.778  0.681E-08  0.390E-08  0.227E-08  0.643E-09
 -11.678  0.402E-09  0.234E-09  0.131E-09  0.373E-10
 -11.578  0.181E-10  0.107E-10  0.578E-11  0.166E-11
 -11.478  0.626E-12  0.374E-12  0.195E-12  0.564E-13
 -11.378  0.163E-13  0.999E-14  0.488E-14  0.141E-14
 -11.278  0.000E+00  0.000E+00  0.000E+00  0.000E+00
 -11.178  0.000E+00  0.000E+00  0.000E+00  0.000E+00
 -11.078  0.000E+00  0.000E+00  0.000E+00  0.000E+00
 -10.978  0.000E+00  0.000E+00  0.000E+00  0.000E+00
 -10.878  0.000E+00  0.000E+00  0.000E+00  0.000E+00
 -10.778  0.000E+00  0.000E+00  0.000E+00  0.000E+00
 -10.678  0.000E+00  0.000E+00  0.000E+00  0.000E+00
 -10.578  0.000E+00  0.000E+00  0.000E+00  0.000E+00
 -10.478  0.000E+00  0.000E+00  0.000E+00  0.000E+00
 -10.378  0.000E+00  0.000E+00  0.000E+00  0.000E+00
 -10.278  0.000E+00  0.000E+00  0.000E+00  0.000E+00
 -10.178  0.000E+00  0.000E+00  0.000E+00  0.000E+00
 -10.078  0.000E+00  0.000E+00  0.000E+00  0.000E+00
  -9.978  0.000E+00  0.000E+00  0.000E+00  0.000E+00
  -9.878  0.000E+00  0.000E+00  0.000E+00  0.000E+00
  -9.778  0.000E+00  0.000E+00  0.000E+00  0.000E+00
  -9.678  0.000E+00  0.000E+00  0.000E+00  0.000E+00
  -9.578  0.000E+00  0.000E+00  0.000E+00  0.000E+00
  -9.478  0.000E+00  0.000E+00  0.000E+00  0.000E+00
  -9.378  0.000E+00  0.000E+00  0.000E+00  0.000E+00
  -9.278  0.000E+00  0.000E+00  0.000E+00  0.000E+00
  -9.178  0.000E+00  0.000E+00  0.000E+00  0.000E+00
  -9.078  0.000E+00  0.000E+00  0.000E+00  0.000E+00
  -8.978  0.000E+00  0.000E+00  0.000E+00  0.000E+00
  -8.878  0.372E-13  0.383E-17  0.204E-13  0.169E-13
  -8.778  0.196E-11  0.390E-15  0.100E-11  0.954E-12
  -8.678  0.640E-10  0.136E-13  0.325E-10  0.315E-10
  -8.578  0.160E-08  0.371E-12  0.803E-09  0.797E-09
  -8.478  0.307E-07  0.776E-11  0.152E-07  0.155E-07
  -8.378  0.453E-06  0.127E-09  0.221E-06  0.232E-06
  -8.278  0.514E-05  0.164E-08  0.247E-05  0.267E-05
  -8.178  0.449E-04  0.173E-07  0.212E-04  0.237E-04
  -8.078  0.303E-03  0.156E-06  0.140E-03  0.162E-03
  -7.978  0.158E-02  0.125E-05  0.717E-03  0.860E-03
  -7.878  0.639E-02  0.908E-05  0.285E-02  0.354E-02
  -7.778  0.202E-01  0.593E-04  0.884E-02  0.113E-01
  -7.678  0.507E-01  0.333E-03  0.218E-01  0.286E-01
  -7.578  0.103E+00  0.156E-02  0.434E-01  0.579E-01
  -7.478  0.175E+00  0.596E-02  0.727E-01  0.961E-01
  -7.378  0.263E+00  0.185E-01  0.107E+00  0.137E+00
  -7.278  0.370E+00  0.466E-01  0.146E+00  0.178E+00
  -7.178  0.507E+00  0.958E-01  0.190E+00  0.221E+00
  -7.078  0.669E+00  0.162E+00  0.239E+00  0.268E+00
  -6.978  0.833E+00  0.230E+00  0.290E+00  0.313E+00
  -6.878  0.956E+00  0.276E+00  0.332E+00  0.348E+00
  -6.778  0.100E+01  0.291E+00  0.354E+00  0.359E+00
  -6.678  0.976E+00  0.281E+00  0.353E+00  0.341E+00
  -6.578  0.902E+00  0.264E+00  0.339E+00  0.299E+00
  -6.478  0.829E+00  0.250E+00  0.326E+00  0.252E+00
  -6.378  0.773E+00  0.241E+00  0.316E+00  0.216E+00
  -6.278  0.718E+00  0.226E+00  0.302E+00  0.190E+00
  -6.178  0.648E+00  0.204E+00  0.277E+00  0.167E+00
  -6.078  0.576E+00  0.183E+00  0.247E+00  0.147E+00
  -5.978  0.528E+00  0.171E+00  0.220E+00  0.136E+00
  -5.878  0.513E+00  0.174E+00  0.197E+00  0.142E+00
  -5.778  0.520E+00  0.184E+00  0.174E+00  0.161E+00
  -5.678  0.536E+00  0.201E+00  0.149E+00  0.186E+00
  -5.578  0.561E+00  0.227E+00  0.130E+00  0.204E+00
  -5.478  0.600E+00  0.265E+00  0.124E+00  0.211E+00
  -5.378  0.647E+00  0.306E+00  0.131E+00  0.209E+00
  -5.278  0.683E+00  0.333E+00  0.144E+00  0.206E+00
  -5.178  0.700E+00  0.332E+00  0.156E+00  0.213E+00
  -5.078  0.718E+00  0.312E+00  0.170E+00  0.237E+00
  -4.978  0.765E+00  0.292E+00  0.195E+00  0.279E+00
  -4.878  0.843E+00  0.287E+00  0.231E+00  0.325E+00
  -4.778  0.913E+00  0.294E+00  0.267E+00  0.351E+00
  -4.678  0.926E+00  0.299E+00  0.287E+00  0.341E+00
  -4.578  0.866E+00  0.288E+00  0.282E+00  0.296E+00
  -4.478  0.755E+00  0.261E+00  0.260E+00  0.234E+00
  -4.378  0.635E+00  0.226E+00  0.232E+00  0.177E+00
  -4.278  0.539E+00  0.190E+00  0.208E+00  0.141E+00
  -4.178  0.486E+00  0.160E+00  0.192E+00  0.133E+00
  -4.078  0.482E+00  0.146E+00  0.189E+00  0.148E+00
  -3.978  0.519E+00  0.150E+00  0.195E+00  0.174E+00
  -3.878  0.573E+00  0.170E+00  0.204E+00  0.199E+00
  -3.778  0.623E+00  0.201E+00  0.210E+00  0.213E+00
  -3.678  0.666E+00  0.243E+00  0.207E+00  0.215E+00
  -3.578  0.713E+00  0.303E+00  0.203E+00  0.207E+00
  -3.478  0.770E+00  0.373E+00  0.203E+00  0.195E+00
  -3.378  0.821E+00  0.427E+00  0.210E+00  0.185E+00
  -3.278  0.847E+00  0.443E+00  0.222E+00  0.182E+00
  -3.178  0.842E+00  0.421E+00  0.232E+00  0.189E+00
  -3.078  0.820E+00  0.378E+00  0.238E+00  0.204E+00
  -2.978  0.787E+00  0.333E+00  0.238E+00  0.215E+00
  -2.878  0.750E+00  0.302E+00  0.234E+00  0.215E+00
  -2.778  0.716E+00  0.289E+00  0.225E+00  0.202E+00
  -2.678  0.689E+00  0.290E+00  0.214E+00  0.186E+00
  -2.578  0.668E+00  0.289E+00  0.200E+00  0.178E+00
  -2.478  0.635E+00  0.273E+00  0.184E+00  0.179E+00
  -2.378  0.579E+00  0.236E+00  0.164E+00  0.179E+00
  -2.278  0.500E+00  0.191E+00  0.140E+00  0.169E+00
  -2.178  0.413E+00  0.154E+00  0.113E+00  0.146E+00
  -2.078  0.338E+00  0.132E+00  0.887E-01  0.118E+00
  -1.978  0.283E+00  0.122E+00  0.704E-01  0.910E-01
  -1.878  0.237E+00  0.111E+00  0.567E-01  0.692E-01
  -1.778  0.186E+00  0.915E-01  0.441E-01  0.509E-01
  -1.678  0.130E+00  0.636E-01  0.309E-01  0.357E-01
  -1.578  0.803E-01  0.370E-01  0.190E-01  0.244E-01
  -1.478  0.465E-01  0.184E-01  0.107E-01  0.174E-01
  -1.378  0.296E-01  0.855E-02  0.672E-02  0.143E-01
  -1.278  0.265E-01  0.481E-02  0.628E-02  0.154E-01
  -1.178  0.352E-01  0.473E-02  0.884E-02  0.217E-01
  -1.078  0.527E-01  0.697E-02  0.141E-01  0.316E-01
  -0.978  0.732E-01  0.106E-01  0.214E-01  0.413E-01
  -0.878  0.908E-01  0.143E-01  0.292E-01  0.473E-01
  -0.778  0.103E+00  0.169E-01  0.357E-01  0.507E-01
  -0.678  0.111E+00  0.174E-01  0.391E-01  0.548E-01
  -0.578  0.113E+00  0.154E-01  0.381E-01  0.590E-01
  -0.478  0.102E+00  0.117E-01  0.325E-01  0.582E-01
  -0.378  0.796E-01  0.752E-02  0.236E-01  0.485E-01
  -0.278  0.507E-01  0.404E-02  0.142E-01  0.325E-01
  -0.178  0.258E-01  0.179E-02  0.689E-02  0.171E-01
  -0.078  0.103E-01  0.643E-03  0.266E-02  0.697E-02
   0.022  0.330E-02  0.198E-03  0.853E-03  0.225E-02
   0.122  0.148E-02  0.123E-03  0.508E-03  0.854E-03
   0.222  0.343E-02  0.405E-03  0.153E-02  0.150E-02
   0.322  0.119E-01  0.159E-02  0.547E-02  0.481E-02
   0.422  0.343E-01  0.522E-02  0.159E-01  0.132E-01
   0.522  0.806E-01  0.143E-01  0.369E-01  0.294E-01
   0.622  0.157E+00  0.324E-01  0.700E-01  0.545E-01
   0.722  0.259E+00  0.619E-01  0.111E+00  0.864E-01
   0.822  0.373E+00  0.999E-01  0.151E+00  0.122E+00
   0.922  0.481E+00  0.138E+00  0.184E+00  0.159E+00
   1.022  0.572E+00  0.166E+00  0.209E+00  0.198E+00
   1.122  0.638E+00  0.178E+00  0.227E+00  0.233E+00
   1.222  0.673E+00  0.175E+00  0.241E+00  0.257E+00
   1.322  0.678E+00  0.165E+00  0.246E+00  0.267E+00
   1.422  0.660E+00  0.156E+00  0.237E+00  0.267E+00
   1.522  0.637E+00  0.151E+00  0.218E+00  0.267E+00
   1.622  0.620E+00  0.148E+00  0.199E+00  0.273E+00
   1.722  0.608E+00  0.143E+00  0.188E+00  0.277E+00
   1.822  0.583E+00  0.134E+00  0.187E+00  0.262E+00
   1.922  0.528E+00  0.123E+00  0.185E+00  0.219E+00
   2.022  0.438E+00  0.112E+00  0.168E+00  0.157E+00
   2.122  0.328E+00  0.101E+00  0.132E+00  0.953E-01
   2.222  0.220E+00  0.856E-01  0.855E-01  0.484E-01
   2.322  0.130E+00  0.643E-01  0.451E-01  0.207E-01
   2.422  0.672E-01  0.404E-01  0.192E-01  0.758E-02
   2.522  0.295E-01  0.205E-01  0.663E-02  0.238E-02
   2.622  0.107E-01  0.820E-02  0.185E-02  0.648E-03
   2.722  0.314E-02  0.257E-02  0.422E-03  0.151E-03
   2.822  0.731E-03  0.623E-03  0.785E-04  0.294E-04
   2.922  0.133E-03  0.117E-03  0.119E-04  0.468E-05
   3.022  0.189E-04  0.169E-04  0.144E-05  0.600E-06
   3.122  0.208E-05  0.188E-05  0.140E-06  0.607E-07
