# E (eV)   ldos(E)   pdos(E)    pdos(E)    pdos(E)    pdos(E)    pdos(E)    pdos(E)    pdos(E)   
 -16.578  0.229E-07  0.149E-12  0.447E-10  0.433E-10  0.965E-12  0.791E-12  0.163E-13  0.228E-07
 -16.478  0.192E-06  0.126E-11  0.427E-09  0.411E-09  0.908E-11  0.745E-11  0.189E-12  0.192E-06
 -16.378  0.124E-05  0.815E-11  0.320E-08  0.306E-08  0.667E-10  0.546E-10  0.176E-11  0.124E-05
 -16.278  0.621E-05  0.409E-10  0.190E-07  0.178E-07  0.384E-09  0.314E-09  0.133E-10  0.617E-05
 -16.178  0.240E-04  0.159E-09  0.897E-07  0.828E-07  0.175E-08  0.142E-08  0.834E-10  0.238E-04
 -16.078  0.720E-04  0.485E-09  0.344E-06  0.309E-06  0.640E-08  0.513E-08  0.434E-09  0.713E-04
 -15.978  0.170E-03  0.118E-08  0.109E-05  0.940E-06  0.191E-07  0.150E-07  0.190E-08  0.168E-03
 -15.878  0.319E-03  0.233E-08  0.290E-05  0.239E-05  0.476E-07  0.360E-07  0.702E-08  0.314E-03
 -15.778  0.491E-03  0.394E-08  0.658E-05  0.514E-05  0.102E-06  0.732E-07  0.218E-07  0.479E-03
 -15.678  0.640E-03  0.608E-08  0.129E-04  0.955E-05  0.195E-06  0.129E-06  0.563E-07  0.618E-03
 -15.578  0.745E-03  0.904E-08  0.219E-04  0.155E-04  0.337E-06  0.202E-06  0.120E-06  0.707E-03
 -15.478  0.809E-03  0.143E-07  0.326E-04  0.224E-04  0.528E-06  0.291E-06  0.210E-06  0.753E-03
 -15.378  0.836E-03  0.358E-07  0.435E-04  0.299E-04  0.757E-06  0.410E-06  0.305E-06  0.761E-03
 -15.278  0.818E-03  0.182E-06  0.542E-04  0.396E-04  0.102E-05  0.615E-06  0.383E-06  0.722E-03
 -15.178  0.761E-03  0.107E-05  0.674E-04  0.555E-04  0.137E-05  0.103E-05  0.470E-06  0.634E-03
 -15.078  0.705E-03  0.528E-05  0.877E-04  0.834E-04  0.199E-05  0.191E-05  0.673E-06  0.524E-03
 -14.978  0.709E-03  0.205E-04  0.118E-03  0.127E-03  0.342E-05  0.396E-05  0.115E-05  0.434E-03
 -14.878  0.815E-03  0.623E-04  0.156E-03  0.185E-03  0.734E-05  0.933E-05  0.204E-05  0.393E-03
 -14.778  0.104E-02  0.150E-03  0.196E-03  0.244E-03  0.175E-04  0.230E-04  0.335E-05  0.408E-03
 -14.678  0.137E-02  0.289E-03  0.227E-03  0.286E-03  0.398E-04  0.527E-04  0.496E-05  0.467E-03
 -14.578  0.175E-02  0.458E-03  0.251E-03  0.306E-03  0.801E-04  0.106E-03  0.677E-05  0.536E-03
 -14.478  0.213E-02  0.609E-03  0.293E-03  0.327E-03  0.144E-03  0.185E-03  0.862E-05  0.566E-03
 -14.378  0.254E-02  0.697E-03  0.389E-03  0.392E-03  0.242E-03  0.292E-03  0.101E-04  0.519E-03
 -14.278  0.305E-02  0.706E-03  0.559E-03  0.531E-03  0.399E-03  0.434E-03  0.108E-04  0.409E-03
 -14.178  0.369E-02  0.652E-03  0.763E-03  0.717E-03  0.641E-03  0.628E-03  0.104E-04  0.279E-03
 -14.078  0.439E-02  0.579E-03  0.915E-03  0.871E-03  0.964E-03  0.881E-03  0.925E-05  0.174E-03
 -13.978  0.499E-02  0.521E-03  0.931E-03  0.903E-03  0.133E-02  0.119E-02  0.792E-05  0.109E-03
 -13.878  0.546E-02  0.475E-03  0.789E-03  0.775E-03  0.173E-02  0.160E-02  0.652E-05  0.808E-04
 -13.778  0.592E-02  0.413E-03  0.556E-03  0.546E-03  0.220E-02  0.213E-02  0.500E-05  0.727E-04
 -13.678  0.641E-02  0.319E-03  0.336E-03  0.324E-03  0.266E-02  0.269E-02  0.346E-05  0.700E-04
 -13.578  0.650E-02  0.214E-03  0.196E-03  0.184E-03  0.288E-02  0.296E-02  0.222E-05  0.694E-04
 -13.478  0.576E-02  0.130E-03  0.143E-03  0.134E-03  0.259E-02  0.268E-02  0.150E-05  0.781E-04
 -13.378  0.431E-02  0.806E-04  0.145E-03  0.140E-03  0.189E-02  0.195E-02  0.124E-05  0.998E-04
 -13.278  0.277E-02  0.552E-04  0.159E-03  0.158E-03  0.112E-02  0.116E-02  0.115E-05  0.122E-03
 -13.178  0.163E-02  0.416E-04  0.153E-03  0.155E-03  0.563E-03  0.588E-03  0.100E-05  0.125E-03
 -13.078  0.980E-03  0.376E-04  0.119E-03  0.121E-03  0.293E-03  0.307E-03  0.746E-06  0.101E-03
 -12.978  0.706E-03  0.451E-04  0.732E-04  0.745E-04  0.225E-03  0.225E-03  0.489E-06  0.631E-04
 -12.878  0.629E-03  0.588E-04  0.350E-04  0.356E-04  0.239E-03  0.230E-03  0.320E-06  0.303E-04
 -12.778  0.583E-03  0.661E-04  0.129E-04  0.132E-04  0.247E-03  0.233E-03  0.231E-06  0.112E-04
 -12.678  0.469E-03  0.586E-04  0.372E-05  0.378E-05  0.206E-03  0.193E-03  0.169E-06  0.318E-05
 -12.578  0.302E-03  0.400E-04  0.844E-06  0.852E-06  0.134E-03  0.125E-03  0.108E-06  0.711E-06
 -12.478  0.151E-03  0.209E-04  0.159E-06  0.157E-06  0.671E-04  0.625E-04  0.553E-07  0.130E-06
 -12.378  0.580E-04  0.833E-05  0.271E-07  0.256E-07  0.257E-04  0.239E-04  0.219E-07  0.215E-07
 -12.278  0.171E-04  0.254E-05  0.466E-08  0.414E-08  0.754E-05  0.700E-05  0.665E-08  0.353E-08
 -12.178  0.386E-05  0.590E-06  0.801E-09  0.681E-09  0.169E-05  0.157E-05  0.154E-08  0.585E-09
 -12.078  0.665E-06  0.105E-06  0.124E-09  0.104E-09  0.291E-06  0.269E-06  0.274E-09  0.882E-10
 -11.978  0.878E-07  0.142E-07  0.158E-10  0.131E-10  0.384E-07  0.352E-07  0.372E-10  0.110E-10
 -11.878  0.887E-08  0.147E-08  0.157E-11  0.132E-11  0.386E-08  0.353E-08  0.385E-11  0.108E-11
 -11.778  0.685E-09  0.116E-09  0.121E-12  0.102E-12  0.297E-09  0.271E-09  0.304E-12  0.826E-13
 -11.678  0.404E-10  0.702E-11  0.709E-14  0.602E-14  0.175E-10  0.159E-10  0.183E-13  0.483E-14
 -11.578  0.182E-11  0.324E-12  0.320E-15  0.273E-15  0.788E-12  0.710E-12  0.845E-15  0.217E-15
 -11.478  0.629E-13  0.114E-13  0.110E-16  0.945E-17  0.271E-13  0.243E-13  0.297E-16  0.746E-17
 -11.378  0.164E-14  0.306E-15  0.288E-18  0.249E-18  0.704E-15  0.628E-15  0.799E-18  0.194E-18
 -11.278  0.000E+00  0.000E+00  0.000E+00  0.000E+00  0.000E+00  0.000E+00  0.000E+00  0.000E+00
 -11.178  0.000E+00  0.000E+00  0.000E+00  0.000E+00  0.000E+00  0.000E+00  0.000E+00  0.000E+00
 -11.078  0.000E+00  0.000E+00  0.000E+00  0.000E+00  0.000E+00  0.000E+00  0.000E+00  0.000E+00
 -10.978  0.000E+00  0.000E+00  0.000E+00  0.000E+00  0.000E+00  0.000E+00  0.000E+00  0.000E+00
 -10.878  0.000E+00  0.000E+00  0.000E+00  0.000E+00  0.000E+00  0.000E+00  0.000E+00  0.000E+00
 -10.778  0.000E+00  0.000E+00  0.000E+00  0.000E+00  0.000E+00  0.000E+00  0.000E+00  0.000E+00
 -10.678  0.000E+00  0.000E+00  0.000E+00  0.000E+00  0.000E+00  0.000E+00  0.000E+00  0.000E+00
 -10.578  0.000E+00  0.000E+00  0.000E+00  0.000E+00  0.000E+00  0.000E+00  0.000E+00  0.000E+00
 -10.478  0.000E+00  0.000E+00  0.000E+00  0.000E+00  0.000E+00  0.000E+00  0.000E+00  0.000E+00
 -10.378  0.000E+00  0.000E+00  0.000E+00  0.000E+00  0.000E+00  0.000E+00  0.000E+00  0.000E+00
 -10.278  0.000E+00  0.000E+00  0.000E+00  0.000E+00  0.000E+00  0.000E+00  0.000E+00  0.000E+00
 -10.178  0.000E+00  0.000E+00  0.000E+00  0.000E+00  0.000E+00  0.000E+00  0.000E+00  0.000E+00
 -10.078  0.000E+00  0.000E+00  0.000E+00  0.000E+00  0.000E+00  0.000E+00  0.000E+00  0.000E+00
  -9.978  0.000E+00  0.000E+00  0.000E+00  0.000E+00  0.000E+00  0.000E+00  0.000E+00  0.000E+00
  -9.878  0.000E+00  0.000E+00  0.000E+00  0.000E+00  0.000E+00  0.000E+00  0.000E+00  0.000E+00
  -9.778  0.000E+00  0.000E+00  0.000E+00  0.000E+00  0.000E+00  0.000E+00  0.000E+00  0.000E+00
  -9.678  0.000E+00  0.000E+00  0.000E+00  0.000E+00  0.000E+00  0.000E+00  0.000E+00  0.000E+00
  -9.578  0.000E+00  0.000E+00  0.000E+00  0.000E+00  0.000E+00  0.000E+00  0.000E+00  0.000E+00
  -9.478  0.000E+00  0.000E+00  0.000E+00  0.000E+00  0.000E+00  0.000E+00  0.000E+00  0.000E+00
  -9.378  0.000E+00  0.000E+00  0.000E+00  0.000E+00  0.000E+00  0.000E+00  0.000E+00  0.000E+00
  -9.278  0.000E+00  0.000E+00  0.000E+00  0.000E+00  0.000E+00  0.000E+00  0.000E+00  0.000E+00
  -9.178  0.000E+00  0.000E+00  0.000E+00  0.000E+00  0.000E+00  0.000E+00  0.000E+00  0.000E+00
  -9.078  0.000E+00  0.000E+00  0.000E+00  0.000E+00  0.000E+00  0.000E+00  0.000E+00  0.000E+00
  -8.978  0.000E+00  0.000E+00  0.000E+00  0.000E+00  0.000E+00  0.000E+00  0.000E+00  0.000E+00
  -8.878  0.586E-16  0.887E-21  0.333E-16  0.115E-16  0.144E-18  0.457E-19  0.956E-18  0.126E-16
  -8.778  0.295E-14  0.140E-18  0.157E-14  0.550E-15  0.670E-17  0.218E-17  0.161E-15  0.656E-15
  -8.678  0.956E-13  0.498E-17  0.504E-13  0.177E-13  0.214E-15  0.702E-16  0.575E-14  0.214E-13
  -8.578  0.237E-11  0.136E-15  0.124E-11  0.437E-12  0.525E-14  0.173E-14  0.157E-12  0.535E-12
  -8.478  0.452E-10  0.283E-14  0.233E-10  0.828E-11  0.983E-13  0.327E-13  0.327E-11  0.103E-10
  -8.378  0.662E-09  0.453E-13  0.336E-09  0.121E-09  0.141E-11  0.475E-12  0.524E-10  0.151E-09
  -8.278  0.746E-08  0.555E-12  0.373E-08  0.135E-08  0.155E-10  0.531E-11  0.643E-09  0.172E-08
  -8.178  0.649E-07  0.522E-11  0.318E-07  0.118E-07  0.131E-09  0.460E-10  0.604E-08  0.152E-07
  -8.078  0.437E-06  0.377E-10  0.209E-06  0.798E-07  0.857E-09  0.311E-09  0.435E-07  0.104E-06
  -7.978  0.230E-05  0.209E-09  0.107E-05  0.428E-06  0.433E-08  0.166E-08  0.240E-06  0.558E-06
  -7.878  0.952E-05  0.890E-09  0.425E-05  0.184E-05  0.172E-07  0.720E-08  0.102E-05  0.239E-05
  -7.778  0.316E-04  0.295E-08  0.134E-04  0.653E-05  0.545E-07  0.263E-07  0.333E-05  0.825E-05
  -7.678  0.862E-04  0.776E-08  0.343E-04  0.195E-04  0.146E-06  0.859E-07  0.845E-05  0.236E-04
  -7.578  0.198E-03  0.173E-07  0.728E-04  0.502E-04  0.359E-06  0.267E-06  0.169E-04  0.576E-04
  -7.478  0.395E-03  0.372E-07  0.133E-03  0.111E-03  0.912E-06  0.813E-06  0.274E-04  0.122E-03
  -7.378  0.694E-03  0.899E-07  0.212E-03  0.211E-03  0.245E-05  0.240E-05  0.387E-04  0.227E-03
  -7.278  0.109E-02  0.236E-06  0.300E-03  0.337E-03  0.648E-05  0.647E-05  0.522E-04  0.383E-03
  -7.178  0.153E-02  0.586E-06  0.378E-03  0.453E-03  0.154E-04  0.153E-04  0.731E-04  0.597E-03
  -7.078  0.199E-02  0.125E-05  0.429E-03  0.516E-03  0.317E-04  0.313E-04  0.106E-03  0.871E-03
  -6.978  0.242E-02  0.224E-05  0.459E-03  0.521E-03  0.566E-04  0.558E-04  0.149E-03  0.117E-02
  -6.878  0.279E-02  0.339E-05  0.497E-03  0.512E-03  0.904E-04  0.905E-04  0.197E-03  0.140E-02
  -6.778  0.306E-02  0.452E-05  0.564E-03  0.539E-03  0.137E-03  0.142E-03  0.245E-03  0.143E-02
  -6.678  0.318E-02  0.582E-05  0.637E-03  0.600E-03  0.208E-03  0.226E-03  0.291E-03  0.121E-02
  -6.578  0.318E-02  0.816E-05  0.654E-03  0.635E-03  0.322E-03  0.357E-03  0.334E-03  0.869E-03
  -6.478  0.312E-02  0.130E-04  0.576E-03  0.584E-03  0.487E-03  0.530E-03  0.365E-03  0.570E-03
  -6.378  0.306E-02  0.219E-04  0.427E-03  0.449E-03  0.681E-03  0.706E-03  0.364E-03  0.406E-03
  -6.278  0.295E-02  0.361E-04  0.273E-03  0.294E-03  0.849E-03  0.836E-03  0.316E-03  0.350E-03
  -6.178  0.282E-02  0.547E-04  0.172E-03  0.184E-03  0.942E-03  0.900E-03  0.233E-03  0.330E-03
  -6.078  0.271E-02  0.737E-04  0.147E-03  0.150E-03  0.961E-03  0.936E-03  0.146E-03  0.300E-03
  -5.978  0.280E-02  0.868E-04  0.200E-03  0.201E-03  0.963E-03  0.100E-02  0.901E-04  0.255E-03
  -5.878  0.318E-02  0.903E-04  0.330E-03  0.335E-03  0.102E-02  0.112E-02  0.758E-04  0.208E-03
  -5.778  0.389E-02  0.883E-04  0.527E-03  0.547E-03  0.118E-02  0.128E-02  0.975E-04  0.178E-03
  -5.678  0.480E-02  0.910E-04  0.769E-03  0.816E-03  0.139E-02  0.141E-02  0.144E-03  0.168E-03
  -5.578  0.566E-02  0.108E-03  0.101E-02  0.109E-02  0.160E-02  0.147E-02  0.207E-03  0.172E-03
  -5.478  0.625E-02  0.145E-03  0.120E-02  0.130E-02  0.172E-02  0.142E-02  0.286E-03  0.183E-03
  -5.378  0.647E-02  0.205E-03  0.128E-02  0.138E-02  0.170E-02  0.132E-02  0.375E-03  0.203E-03
  -5.278  0.637E-02  0.296E-03  0.126E-02  0.134E-02  0.158E-02  0.120E-02  0.452E-03  0.238E-03
  -5.178  0.609E-02  0.431E-03  0.117E-02  0.121E-02  0.140E-02  0.111E-02  0.479E-03  0.281E-03
  -5.078  0.583E-02  0.617E-03  0.104E-02  0.106E-02  0.125E-02  0.111E-02  0.435E-03  0.310E-03
  -4.978  0.579E-02  0.833E-03  0.923E-03  0.908E-03  0.122E-02  0.125E-02  0.341E-03  0.314E-03
  -4.878  0.613E-02  0.103E-02  0.833E-03  0.792E-03  0.135E-02  0.158E-02  0.242E-03  0.296E-03
  -4.778  0.684E-02  0.114E-02  0.787E-03  0.719E-03  0.167E-02  0.208E-02  0.172E-03  0.265E-03
  -4.678  0.775E-02  0.113E-02  0.775E-03  0.677E-03  0.214E-02  0.267E-02  0.133E-03  0.226E-03
  -4.578  0.860E-02  0.993E-03  0.779E-03  0.650E-03  0.268E-02  0.320E-02  0.112E-03  0.188E-03
  -4.478  0.906E-02  0.800E-03  0.782E-03  0.621E-03  0.312E-02  0.347E-02  0.103E-03  0.156E-03
  -4.378  0.893E-02  0.641E-03  0.760E-03  0.576E-03  0.332E-02  0.339E-02  0.109E-03  0.136E-03
  -4.278  0.824E-02  0.571E-03  0.697E-03  0.517E-03  0.321E-02  0.298E-02  0.138E-03  0.125E-03
  -4.178  0.723E-02  0.589E-03  0.621E-03  0.477E-03  0.281E-02  0.241E-02  0.200E-03  0.124E-03
  -4.078  0.631E-02  0.651E-03  0.596E-03  0.514E-03  0.225E-02  0.187E-02  0.290E-03  0.137E-03
  -3.978  0.579E-02  0.709E-03  0.666E-03  0.658E-03  0.172E-02  0.149E-02  0.385E-03  0.163E-03
  -3.878  0.582E-02  0.762E-03  0.812E-03  0.876E-03  0.139E-02  0.132E-02  0.467E-03  0.192E-03
  -3.778  0.626E-02  0.868E-03  0.959E-03  0.107E-02  0.128E-02  0.132E-02  0.548E-03  0.212E-03
  -3.678  0.691E-02  0.111E-02  0.103E-02  0.115E-02  0.131E-02  0.142E-02  0.667E-03  0.219E-03
  -3.578  0.764E-02  0.150E-02  0.997E-03  0.107E-02  0.143E-02  0.158E-02  0.848E-03  0.215E-03
  -3.478  0.836E-02  0.193E-02  0.873E-03  0.880E-03  0.162E-02  0.175E-02  0.109E-02  0.211E-03
  -3.378  0.892E-02  0.224E-02  0.720E-03  0.668E-03  0.180E-02  0.186E-02  0.142E-02  0.218E-03
  -3.278  0.922E-02  0.232E-02  0.598E-03  0.514E-03  0.186E-02  0.182E-02  0.188E-02  0.238E-03
  -3.178  0.937E-02  0.222E-02  0.539E-03  0.448E-03  0.174E-02  0.163E-02  0.252E-02  0.268E-03
  -3.078  0.950E-02  0.206E-02  0.542E-03  0.463E-03  0.150E-02  0.135E-02  0.329E-02  0.301E-03
  -2.978  0.958E-02  0.194E-02  0.583E-03  0.527E-03  0.118E-02  0.107E-02  0.394E-02  0.338E-03
  -2.878  0.945E-02  0.194E-02  0.630E-03  0.596E-03  0.860E-03  0.808E-03  0.422E-02  0.388E-03
  -2.778  0.912E-02  0.206E-02  0.648E-03  0.635E-03  0.595E-03  0.600E-03  0.412E-02  0.462E-03
  -2.678  0.879E-02  0.225E-02  0.632E-03  0.640E-03  0.421E-03  0.460E-03  0.383E-02  0.555E-03
  -2.578  0.863E-02  0.240E-02  0.633E-03  0.667E-03  0.334E-03  0.387E-03  0.356E-02  0.639E-03
  -2.478  0.864E-02  0.237E-02  0.768E-03  0.820E-03  0.311E-03  0.370E-03  0.332E-02  0.680E-03
  -2.378  0.883E-02  0.205E-02  0.119E-02  0.122E-02  0.326E-03  0.395E-03  0.298E-02  0.677E-03
  -2.278  0.941E-02  0.149E-02  0.200E-02  0.195E-02  0.358E-03  0.444E-03  0.250E-02  0.666E-03
  -2.178  0.106E-01  0.884E-03  0.320E-02  0.303E-02  0.389E-03  0.490E-03  0.195E-02  0.691E-03
  -2.078  0.125E-01  0.426E-03  0.457E-02  0.435E-02  0.403E-03  0.507E-03  0.147E-02  0.755E-03
  -1.978  0.143E-01  0.168E-03  0.569E-02  0.556E-02  0.391E-03  0.484E-03  0.114E-02  0.814E-03
  -1.878  0.148E-01  0.567E-04  0.606E-02  0.612E-02  0.354E-03  0.432E-03  0.927E-03  0.798E-03
  -1.778  0.131E-01  0.193E-04  0.539E-02  0.564E-02  0.303E-03  0.378E-03  0.726E-03  0.670E-03
  -1.678  0.976E-02  0.810E-05  0.393E-02  0.424E-02  0.260E-03  0.354E-03  0.506E-03  0.463E-03
  -1.578  0.604E-02  0.432E-05  0.231E-02  0.256E-02  0.240E-03  0.370E-03  0.301E-03  0.260E-03
  -1.478  0.325E-02  0.268E-05  0.108E-02  0.123E-02  0.249E-03  0.408E-03  0.158E-03  0.118E-03
  -1.378  0.174E-02  0.184E-05  0.405E-03  0.466E-03  0.288E-03  0.446E-03  0.855E-04  0.450E-04
  -1.278  0.121E-02  0.136E-05  0.123E-03  0.142E-03  0.371E-03  0.489E-03  0.715E-04  0.159E-04
  -1.178  0.127E-02  0.120E-05  0.333E-04  0.388E-04  0.510E-03  0.564E-03  0.113E-03  0.727E-05
  -1.078  0.161E-02  0.151E-05  0.129E-04  0.147E-04  0.684E-03  0.670E-03  0.221E-03  0.636E-05
  -0.978  0.200E-02  0.235E-05  0.113E-04  0.124E-04  0.818E-03  0.754E-03  0.398E-03  0.794E-05
  -0.878  0.223E-02  0.337E-05  0.137E-04  0.146E-04  0.836E-03  0.752E-03  0.602E-03  0.968E-05
  -0.778  0.217E-02  0.397E-05  0.166E-04  0.168E-04  0.730E-03  0.653E-03  0.744E-03  0.103E-04
  -0.678  0.185E-02  0.374E-05  0.189E-04  0.180E-04  0.557E-03  0.500E-03  0.745E-03  0.948E-05
  -0.578  0.138E-02  0.279E-05  0.196E-04  0.175E-04  0.385E-03  0.345E-03  0.607E-03  0.743E-05
  -0.478  0.908E-03  0.166E-05  0.180E-04  0.151E-04  0.246E-03  0.217E-03  0.405E-03  0.500E-05
  -0.378  0.519E-03  0.796E-06  0.141E-04  0.112E-04  0.144E-03  0.123E-03  0.223E-03  0.290E-05
  -0.278  0.255E-03  0.314E-06  0.907E-05  0.692E-05  0.741E-04  0.611E-04  0.102E-03  0.146E-05
  -0.178  0.106E-03  0.104E-06  0.470E-05  0.346E-05  0.326E-04  0.258E-04  0.389E-04  0.629E-06
  -0.078  0.377E-04  0.310E-07  0.203E-05  0.142E-05  0.119E-04  0.902E-05  0.131E-04  0.255E-06
   0.022  0.183E-04  0.187E-07  0.155E-05  0.885E-06  0.348E-05  0.256E-05  0.955E-05  0.301E-06
   0.122  0.447E-04  0.663E-07  0.617E-05  0.320E-05  0.859E-06  0.626E-06  0.324E-04  0.140E-05
   0.222  0.174E-03  0.287E-06  0.299E-04  0.164E-04  0.441E-06  0.380E-06  0.121E-03  0.623E-05
   0.322  0.566E-03  0.103E-05  0.116E-03  0.690E-04  0.133E-05  0.124E-05  0.355E-03  0.218E-04
   0.422  0.148E-02  0.302E-05  0.359E-03  0.232E-03  0.469E-05  0.433E-05  0.820E-03  0.599E-04
   0.522  0.319E-02  0.751E-05  0.890E-03  0.631E-03  0.137E-04  0.124E-04  0.151E-02  0.130E-03
   0.622  0.577E-02  0.160E-04  0.180E-02  0.140E-02  0.332E-04  0.295E-04  0.227E-02  0.227E-03
   0.722  0.898E-02  0.293E-04  0.302E-02  0.254E-02  0.688E-04  0.602E-04  0.293E-02  0.326E-03
   0.822  0.123E-01  0.467E-04  0.428E-02  0.385E-02  0.131E-03  0.115E-03  0.344E-02  0.400E-03
   0.922  0.151E-01  0.657E-04  0.526E-02  0.496E-02  0.251E-03  0.229E-03  0.386E-02  0.440E-03
   1.022  0.172E-01  0.851E-04  0.583E-02  0.567E-02  0.502E-03  0.481E-03  0.418E-02  0.453E-03
   1.122  0.190E-01  0.108E-03  0.613E-02  0.613E-02  0.982E-03  0.981E-03  0.425E-02  0.451E-03
   1.222  0.209E-01  0.141E-03  0.635E-02  0.654E-02  0.174E-02  0.177E-02  0.387E-02  0.442E-03
   1.322  0.223E-01  0.186E-03  0.641E-02  0.681E-02  0.269E-02  0.276E-02  0.305E-02  0.431E-03
   1.422  0.228E-01  0.241E-03  0.606E-02  0.667E-02  0.365E-02  0.370E-02  0.201E-02  0.427E-03
   1.522  0.219E-01  0.302E-03  0.527E-02  0.599E-02  0.442E-02  0.440E-02  0.110E-02  0.441E-03
   1.622  0.203E-01  0.369E-03  0.430E-02  0.501E-02  0.489E-02  0.475E-02  0.492E-03  0.458E-03
   1.722  0.183E-01  0.438E-03  0.349E-02  0.404E-02  0.497E-02  0.477E-02  0.187E-03  0.446E-03
   1.822  0.163E-01  0.495E-03  0.288E-02  0.326E-02  0.470E-02  0.451E-02  0.678E-04  0.379E-03
   1.922  0.141E-01  0.515E-03  0.236E-02  0.259E-02  0.420E-02  0.409E-02  0.292E-04  0.268E-03
   2.022  0.115E-01  0.481E-03  0.180E-02  0.194E-02  0.360E-02  0.356E-02  0.163E-04  0.154E-03
   2.122  0.884E-02  0.400E-03  0.119E-02  0.127E-02  0.297E-02  0.293E-02  0.976E-05  0.719E-04
   2.222  0.617E-02  0.298E-03  0.656E-03  0.703E-03  0.229E-02  0.220E-02  0.531E-05  0.275E-04
   2.322  0.383E-02  0.196E-03  0.294E-03  0.316E-03  0.157E-02  0.145E-02  0.244E-05  0.888E-05
   2.422  0.206E-02  0.112E-03  0.105E-03  0.113E-03  0.917E-03  0.810E-03  0.917E-06  0.251E-05
   2.522  0.931E-03  0.526E-04  0.298E-04  0.322E-04  0.441E-03  0.374E-03  0.280E-06  0.645E-06
   2.622  0.344E-03  0.199E-04  0.665E-05  0.715E-05  0.171E-03  0.140E-03  0.690E-07  0.152E-06
   2.722  0.102E-03  0.596E-05  0.116E-05  0.125E-05  0.522E-04  0.415E-04  0.137E-07  0.319E-07
   2.822  0.239E-04  0.139E-05  0.161E-06  0.170E-06  0.125E-04  0.968E-05  0.218E-08  0.575E-08
   2.922  0.437E-05  0.249E-06  0.178E-07  0.184E-07  0.232E-05  0.176E-05  0.278E-09  0.858E-09
   3.022  0.621E-06  0.344E-07  0.160E-08  0.160E-08  0.334E-06  0.249E-06  0.284E-10  0.103E-09
   3.122  0.681E-07  0.365E-08  0.119E-09  0.113E-09  0.371E-07  0.271E-07  0.232E-11  0.991E-11
