# E (eV)   ldos(E)   pdos(E)    pdos(E)    pdos(E)   
 -16.578  0.225E-06  0.167E-10  0.525E-07  0.173E-06
 -16.478  0.197E-05  0.157E-09  0.487E-06  0.149E-05
 -16.378  0.134E-04  0.127E-08  0.351E-05  0.991E-05
 -16.278  0.711E-04  0.101E-07  0.198E-04  0.513E-04
 -16.178  0.296E-03  0.840E-07  0.880E-04  0.208E-03
 -16.078  0.979E-03  0.685E-06  0.312E-03  0.666E-03
 -15.978  0.262E-02  0.485E-05  0.898E-03  0.171E-02
 -15.878  0.583E-02  0.277E-04  0.218E-02  0.362E-02
 -15.778  0.112E-01  0.124E-03  0.471E-02  0.641E-02
 -15.678  0.197E-01  0.433E-03  0.945E-02  0.980E-02
 -15.578  0.320E-01  0.117E-02  0.178E-01  0.131E-01
 -15.478  0.480E-01  0.248E-02  0.302E-01  0.153E-01
 -15.378  0.644E-01  0.414E-02  0.445E-01  0.158E-01
 -15.278  0.763E-01  0.553E-02  0.556E-01  0.152E-01
 -15.178  0.814E-01  0.618E-02  0.597E-01  0.155E-01
 -15.078  0.838E-01  0.662E-02  0.582E-01  0.190E-01
 -14.978  0.917E-01  0.917E-02  0.556E-01  0.269E-01
 -14.878  0.113E+00  0.186E-01  0.560E-01  0.387E-01
 -14.778  0.153E+00  0.407E-01  0.609E-01  0.518E-01
 -14.678  0.210E+00  0.776E-01  0.706E-01  0.623E-01
 -14.578  0.272E+00  0.122E+00  0.842E-01  0.659E-01
 -14.478  0.321E+00  0.158E+00  0.101E+00  0.616E-01
 -14.378  0.351E+00  0.176E+00  0.122E+00  0.527E-01
 -14.278  0.369E+00  0.180E+00  0.144E+00  0.443E-01
 -14.178  0.387E+00  0.183E+00  0.164E+00  0.401E-01
 -14.078  0.406E+00  0.193E+00  0.171E+00  0.423E-01
 -13.978  0.413E+00  0.202E+00  0.158E+00  0.533E-01
 -13.878  0.398E+00  0.198E+00  0.125E+00  0.746E-01
 -13.778  0.365E+00  0.178E+00  0.846E-01  0.103E+00
 -13.678  0.326E+00  0.147E+00  0.501E-01  0.129E+00
 -13.578  0.289E+00  0.113E+00  0.287E-01  0.148E+00
 -13.478  0.262E+00  0.803E-01  0.190E-01  0.163E+00
 -13.378  0.250E+00  0.531E-01  0.162E-01  0.180E+00
 -13.278  0.243E+00  0.349E-01  0.156E-01  0.192E+00
 -13.178  0.220E+00  0.259E-01  0.139E-01  0.181E+00
 -13.078  0.173E+00  0.234E-01  0.104E-01  0.139E+00
 -12.978  0.116E+00  0.250E-01  0.625E-02  0.847E-01
 -12.878  0.706E-01  0.273E-01  0.294E-02  0.404E-01
 -12.778  0.425E-01  0.264E-01  0.108E-02  0.150E-01
 -12.678  0.255E-01  0.207E-01  0.315E-03  0.448E-02
 -12.578  0.140E-01  0.128E-01  0.763E-04  0.114E-02
 -12.478  0.636E-02  0.607E-02  0.169E-04  0.274E-03
 -12.378  0.230E-02  0.222E-02  0.379E-05  0.683E-04
 -12.278  0.643E-03  0.626E-03  0.863E-06  0.166E-04
 -12.178  0.139E-03  0.135E-03  0.177E-06  0.353E-05
 -12.078  0.230E-04  0.224E-04  0.298E-07  0.600E-06
 -11.978  0.293E-05  0.285E-05  0.394E-08  0.795E-07
 -11.878  0.286E-06  0.278E-06  0.401E-09  0.810E-08
 -11.778  0.214E-07  0.208E-07  0.313E-10  0.632E-09
 -11.678  0.123E-08  0.119E-08  0.187E-11  0.377E-10
 -11.578  0.540E-10  0.522E-10  0.851E-13  0.172E-11
 -11.478  0.182E-11  0.176E-11  0.296E-14  0.598E-13
 -11.378  0.434E-13  0.417E-13  0.784E-16  0.158E-14
 -11.278  0.000E+00  0.000E+00  0.000E+00  0.000E+00
 -11.178  0.000E+00  0.000E+00  0.000E+00  0.000E+00
 -11.078  0.000E+00  0.000E+00  0.000E+00  0.000E+00
 -10.978  0.000E+00  0.000E+00  0.000E+00  0.000E+00
 -10.878  0.000E+00  0.000E+00  0.000E+00  0.000E+00
 -10.778  0.000E+00  0.000E+00  0.000E+00  0.000E+00
 -10.678  0.000E+00  0.000E+00  0.000E+00  0.000E+00
 -10.578  0.000E+00  0.000E+00  0.000E+00  0.000E+00
 -10.478  0.000E+00  0.000E+00  0.000E+00  0.000E+00
 -10.378  0.000E+00  0.000E+00  0.000E+00  0.000E+00
 -10.278  0.000E+00  0.000E+00  0.000E+00  0.000E+00
 -10.178  0.000E+00  0.000E+00  0.000E+00  0.000E+00
 -10.078  0.000E+00  0.000E+00  0.000E+00  0.000E+00
  -9.978  0.000E+00  0.000E+00  0.000E+00  0.000E+00
  -9.878  0.000E+00  0.000E+00  0.000E+00  0.000E+00
  -9.778  0.000E+00  0.000E+00  0.000E+00  0.000E+00
  -9.678  0.000E+00  0.000E+00  0.000E+00  0.000E+00
  -9.578  0.000E+00  0.000E+00  0.000E+00  0.000E+00
  -9.478  0.000E+00  0.000E+00  0.000E+00  0.000E+00
  -9.378  0.000E+00  0.000E+00  0.000E+00  0.000E+00
  -9.278  0.000E+00  0.000E+00  0.000E+00  0.000E+00
  -9.178  0.000E+00  0.000E+00  0.000E+00  0.000E+00
  -9.078  0.000E+00  0.000E+00  0.000E+00  0.000E+00
  -8.978  0.000E+00  0.000E+00  0.000E+00  0.000E+00
  -8.878  0.199E-13  0.131E-13  0.147E-14  0.541E-14
  -8.778  0.992E-12  0.635E-12  0.679E-13  0.290E-12
  -8.678  0.321E-10  0.205E-10  0.217E-11  0.946E-11
  -8.578  0.796E-09  0.506E-09  0.532E-10  0.237E-09
  -8.478  0.151E-07  0.957E-08  0.996E-09  0.455E-08
  -8.378  0.220E-06  0.139E-06  0.143E-07  0.672E-07
  -8.278  0.247E-05  0.155E-05  0.158E-06  0.762E-06
  -8.178  0.213E-04  0.133E-04  0.134E-05  0.665E-05
  -8.078  0.141E-03  0.879E-04  0.876E-05  0.447E-04
  -7.978  0.726E-03  0.449E-03  0.445E-04  0.232E-03
  -7.878  0.288E-02  0.178E-02  0.177E-03  0.931E-03
  -7.778  0.893E-02  0.547E-02  0.560E-03  0.290E-02
  -7.678  0.217E-01  0.132E-01  0.144E-02  0.707E-02
  -7.578  0.418E-01  0.251E-01  0.313E-02  0.136E-01
  -7.478  0.649E-01  0.379E-01  0.586E-02  0.211E-01
  -7.378  0.833E-01  0.463E-01  0.968E-02  0.273E-01
  -7.278  0.913E-01  0.464E-01  0.143E-01  0.306E-01
  -7.178  0.903E-01  0.399E-01  0.191E-01  0.314E-01
  -7.078  0.863E-01  0.322E-01  0.238E-01  0.303E-01
  -6.978  0.852E-01  0.284E-01  0.290E-01  0.279E-01
  -6.878  0.889E-01  0.293E-01  0.347E-01  0.249E-01
  -6.778  0.941E-01  0.328E-01  0.394E-01  0.220E-01
  -6.678  0.953E-01  0.352E-01  0.405E-01  0.195E-01
  -6.578  0.885E-01  0.346E-01  0.364E-01  0.176E-01
  -6.478  0.749E-01  0.310E-01  0.284E-01  0.155E-01
  -6.378  0.590E-01  0.261E-01  0.200E-01  0.129E-01
  -6.278  0.453E-01  0.215E-01  0.136E-01  0.101E-01
  -6.178  0.363E-01  0.185E-01  0.966E-02  0.819E-02
  -6.078  0.339E-01  0.179E-01  0.762E-02  0.830E-02
  -5.978  0.389E-01  0.206E-01  0.715E-02  0.111E-01
  -5.878  0.510E-01  0.263E-01  0.862E-02  0.161E-01
  -5.778  0.675E-01  0.327E-01  0.129E-01  0.219E-01
  -5.678  0.848E-01  0.370E-01  0.208E-01  0.270E-01
  -5.578  0.100E+00  0.378E-01  0.320E-01  0.302E-01
  -5.478  0.112E+00  0.363E-01  0.445E-01  0.310E-01
  -5.378  0.118E+00  0.345E-01  0.544E-01  0.291E-01
  -5.278  0.118E+00  0.340E-01  0.585E-01  0.250E-01
  -5.178  0.112E+00  0.360E-01  0.558E-01  0.202E-01
  -5.078  0.106E+00  0.413E-01  0.475E-01  0.170E-01
  -4.978  0.104E+00  0.497E-01  0.368E-01  0.173E-01
  -4.878  0.107E+00  0.583E-01  0.269E-01  0.213E-01
  -4.778  0.109E+00  0.625E-01  0.199E-01  0.269E-01
  -4.678  0.106E+00  0.599E-01  0.158E-01  0.305E-01
  -4.578  0.964E-01  0.523E-01  0.136E-01  0.305E-01
  -4.478  0.836E-01  0.435E-01  0.122E-01  0.279E-01
  -4.378  0.709E-01  0.352E-01  0.112E-01  0.244E-01
  -4.278  0.602E-01  0.277E-01  0.113E-01  0.213E-01
  -4.178  0.534E-01  0.214E-01  0.130E-01  0.190E-01
  -4.078  0.516E-01  0.172E-01  0.163E-01  0.181E-01
  -3.978  0.539E-01  0.158E-01  0.197E-01  0.184E-01
  -3.878  0.576E-01  0.171E-01  0.217E-01  0.188E-01
  -3.778  0.601E-01  0.198E-01  0.218E-01  0.186E-01
  -3.678  0.605E-01  0.224E-01  0.207E-01  0.174E-01
  -3.578  0.592E-01  0.236E-01  0.198E-01  0.158E-01
  -3.478  0.570E-01  0.231E-01  0.195E-01  0.143E-01
  -3.378  0.551E-01  0.218E-01  0.199E-01  0.134E-01
  -3.278  0.545E-01  0.205E-01  0.206E-01  0.134E-01
  -3.178  0.552E-01  0.197E-01  0.213E-01  0.143E-01
  -3.078  0.569E-01  0.193E-01  0.217E-01  0.159E-01
  -2.978  0.584E-01  0.187E-01  0.217E-01  0.180E-01
  -2.878  0.585E-01  0.176E-01  0.209E-01  0.200E-01
  -2.778  0.572E-01  0.159E-01  0.195E-01  0.218E-01
  -2.678  0.558E-01  0.143E-01  0.179E-01  0.236E-01
  -2.578  0.558E-01  0.133E-01  0.169E-01  0.255E-01
  -2.478  0.569E-01  0.130E-01  0.167E-01  0.272E-01
  -2.378  0.575E-01  0.126E-01  0.170E-01  0.279E-01
  -2.278  0.571E-01  0.118E-01  0.176E-01  0.276E-01
  -2.178  0.570E-01  0.114E-01  0.188E-01  0.268E-01
  -2.078  0.586E-01  0.123E-01  0.202E-01  0.261E-01
  -1.978  0.601E-01  0.139E-01  0.210E-01  0.252E-01
  -1.878  0.574E-01  0.145E-01  0.200E-01  0.228E-01
  -1.778  0.478E-01  0.129E-01  0.166E-01  0.183E-01
  -1.678  0.336E-01  0.953E-02  0.115E-01  0.125E-01
  -1.578  0.200E-01  0.603E-02  0.670E-02  0.730E-02
  -1.478  0.106E-01  0.353E-02  0.340E-02  0.370E-02
  -1.378  0.585E-02  0.218E-02  0.188E-02  0.179E-02
  -1.278  0.447E-02  0.163E-02  0.175E-02  0.108E-02
  -1.178  0.547E-02  0.161E-02  0.271E-02  0.115E-02
  -1.078  0.839E-02  0.194E-02  0.467E-02  0.178E-02
  -0.978  0.128E-01  0.250E-02  0.752E-02  0.279E-02
  -0.878  0.178E-01  0.310E-02  0.108E-01  0.398E-02
  -0.778  0.219E-01  0.347E-02  0.134E-01  0.508E-02
  -0.678  0.236E-01  0.340E-02  0.144E-01  0.578E-02
  -0.578  0.220E-01  0.282E-02  0.133E-01  0.579E-02
  -0.478  0.177E-01  0.193E-02  0.108E-01  0.500E-02
  -0.378  0.122E-01  0.107E-02  0.749E-02  0.363E-02
  -0.278  0.705E-02  0.484E-03  0.441E-02  0.216E-02
  -0.178  0.335E-02  0.178E-03  0.214E-02  0.104E-02
  -0.078  0.128E-02  0.536E-04  0.833E-03  0.395E-03
   0.022  0.392E-03  0.154E-04  0.258E-03  0.119E-03
   0.122  0.125E-03  0.156E-04  0.716E-04  0.383E-04
   0.222  0.176E-03  0.567E-04  0.608E-04  0.587E-04
   0.322  0.592E-03  0.194E-03  0.190E-03  0.208E-03
   0.422  0.175E-02  0.532E-03  0.574E-03  0.645E-03
   0.522  0.423E-02  0.118E-02  0.141E-02  0.164E-02
   0.622  0.846E-02  0.212E-02  0.286E-02  0.348E-02
   0.722  0.143E-01  0.321E-02  0.484E-02  0.625E-02
   0.822  0.208E-01  0.421E-02  0.697E-02  0.966E-02
   0.922  0.267E-01  0.498E-02  0.870E-02  0.130E-01
   1.022  0.307E-01  0.556E-02  0.957E-02  0.156E-01
   1.122  0.323E-01  0.599E-02  0.946E-02  0.169E-01
   1.222  0.319E-01  0.624E-02  0.866E-02  0.170E-01
   1.322  0.306E-01  0.631E-02  0.768E-02  0.166E-01
   1.422  0.295E-01  0.634E-02  0.715E-02  0.160E-01
   1.522  0.300E-01  0.655E-02  0.755E-02  0.159E-01
   1.622  0.323E-01  0.701E-02  0.900E-02  0.163E-01
   1.722  0.353E-01  0.752E-02  0.109E-01  0.168E-01
   1.822  0.362E-01  0.770E-02  0.122E-01  0.163E-01
   1.922  0.330E-01  0.719E-02  0.117E-01  0.141E-01
   2.022  0.261E-01  0.590E-02  0.945E-02  0.107E-01
   2.122  0.176E-01  0.419E-02  0.637E-02  0.708E-02
   2.222  0.102E-01  0.256E-02  0.360E-02  0.407E-02
   2.322  0.512E-02  0.135E-02  0.171E-02  0.206E-02
   2.422  0.223E-02  0.624E-03  0.689E-03  0.918E-03
   2.522  0.846E-03  0.250E-03  0.237E-03  0.359E-03
   2.622  0.275E-03  0.855E-04  0.691E-04  0.120E-03
   2.722  0.749E-04  0.242E-04  0.170E-04  0.337E-04
   2.822  0.166E-04  0.556E-05  0.344E-05  0.765E-05
   2.922  0.296E-05  0.101E-05  0.565E-06  0.138E-05
   3.022  0.413E-06  0.144E-06  0.739E-07  0.195E-06
   3.122  0.449E-07  0.158E-07  0.762E-08  0.215E-07
