# E (eV)   ldos(E)   pdos(E)    pdos(E)    pdos(E)   
 -16.578  0.153E-06  0.143E-06  0.431E-08  0.580E-08
 -16.478  0.129E-05  0.120E-05  0.407E-07  0.512E-07
 -16.378  0.840E-05  0.775E-05  0.300E-06  0.350E-06
 -16.278  0.422E-04  0.386E-04  0.174E-05  0.188E-05
 -16.178  0.165E-03  0.149E-03  0.800E-05  0.791E-05
 -16.078  0.503E-03  0.447E-03  0.295E-04  0.266E-04
 -15.978  0.121E-02  0.105E-02  0.891E-04  0.725E-04
 -15.878  0.235E-02  0.197E-02  0.224E-03  0.163E-03
 -15.778  0.377E-02  0.298E-02  0.479E-03  0.310E-03
 -15.678  0.518E-02  0.379E-02  0.891E-03  0.504E-03
 -15.578  0.634E-02  0.416E-02  0.146E-02  0.712E-03
 -15.478  0.709E-02  0.408E-02  0.212E-02  0.884E-03
 -15.378  0.736E-02  0.364E-02  0.271E-02  0.101E-02
 -15.278  0.722E-02  0.300E-02  0.308E-02  0.114E-02
 -15.178  0.701E-02  0.243E-02  0.319E-02  0.139E-02
 -15.078  0.725E-02  0.222E-02  0.320E-02  0.183E-02
 -14.978  0.830E-02  0.256E-02  0.330E-02  0.244E-02
 -14.878  0.102E-01  0.352E-02  0.357E-02  0.313E-02
 -14.778  0.129E-01  0.505E-02  0.393E-02  0.388E-02
 -14.678  0.159E-01  0.692E-02  0.428E-02  0.467E-02
 -14.578  0.186E-01  0.867E-02  0.462E-02  0.536E-02
 -14.478  0.207E-01  0.976E-02  0.518E-02  0.574E-02
 -14.378  0.220E-01  0.101E-01  0.618E-02  0.578E-02
 -14.278  0.233E-01  0.997E-02  0.757E-02  0.573E-02
 -14.178  0.248E-01  0.100E-01  0.885E-02  0.593E-02
 -14.078  0.262E-01  0.103E-01  0.945E-02  0.645E-02
 -13.978  0.266E-01  0.104E-01  0.908E-02  0.711E-02
 -13.878  0.252E-01  0.970E-02  0.783E-02  0.769E-02
 -13.778  0.223E-01  0.810E-02  0.620E-02  0.800E-02
 -13.678  0.189E-01  0.613E-02  0.480E-02  0.799E-02
 -13.578  0.163E-01  0.444E-02  0.404E-02  0.780E-02
 -13.478  0.150E-01  0.339E-02  0.396E-02  0.766E-02
 -13.378  0.147E-01  0.295E-02  0.421E-02  0.756E-02
 -13.278  0.141E-01  0.278E-02  0.428E-02  0.709E-02
 -13.178  0.122E-01  0.247E-02  0.377E-02  0.597E-02
 -13.078  0.928E-02  0.193E-02  0.280E-02  0.456E-02
 -12.978  0.665E-02  0.134E-02  0.178E-02  0.353E-02
 -12.878  0.505E-02  0.913E-03  0.107E-02  0.307E-02
 -12.778  0.408E-02  0.664E-03  0.669E-03  0.275E-02
 -12.678  0.307E-02  0.477E-03  0.424E-03  0.217E-02
 -12.578  0.192E-02  0.297E-03  0.242E-03  0.138E-02
 -12.478  0.948E-03  0.148E-03  0.113E-03  0.686E-03
 -12.378  0.361E-03  0.574E-04  0.415E-04  0.262E-03
 -12.278  0.106E-03  0.171E-04  0.118E-04  0.769E-04
 -12.178  0.237E-04  0.390E-05  0.256E-05  0.173E-04
 -12.078  0.409E-05  0.680E-06  0.428E-06  0.298E-05
 -11.978  0.538E-06  0.906E-07  0.548E-07  0.393E-06
 -11.878  0.543E-07  0.924E-08  0.538E-08  0.397E-07
 -11.778  0.419E-08  0.720E-09  0.404E-09  0.307E-08
 -11.678  0.247E-09  0.429E-10  0.233E-10  0.181E-09
 -11.578  0.112E-10  0.195E-11  0.103E-11  0.820E-11
 -11.478  0.386E-12  0.678E-13  0.346E-13  0.284E-12
 -11.378  0.100E-13  0.180E-14  0.865E-15  0.735E-14
 -11.278  0.000E+00  0.000E+00  0.000E+00  0.000E+00
 -11.178  0.000E+00  0.000E+00  0.000E+00  0.000E+00
 -11.078  0.000E+00  0.000E+00  0.000E+00  0.000E+00
 -10.978  0.000E+00  0.000E+00  0.000E+00  0.000E+00
 -10.878  0.000E+00  0.000E+00  0.000E+00  0.000E+00
 -10.778  0.000E+00  0.000E+00  0.000E+00  0.000E+00
 -10.678  0.000E+00  0.000E+00  0.000E+00  0.000E+00
 -10.578  0.000E+00  0.000E+00  0.000E+00  0.000E+00
 -10.478  0.000E+00  0.000E+00  0.000E+00  0.000E+00
 -10.378  0.000E+00  0.000E+00  0.000E+00  0.000E+00
 -10.278  0.000E+00  0.000E+00  0.000E+00  0.000E+00
 -10.178  0.000E+00  0.000E+00  0.000E+00  0.000E+00
 -10.078  0.000E+00  0.000E+00  0.000E+00  0.000E+00
  -9.978  0.000E+00  0.000E+00  0.000E+00  0.000E+00
  -9.878  0.000E+00  0.000E+00  0.000E+00  0.000E+00
  -9.778  0.000E+00  0.000E+00  0.000E+00  0.000E+00
  -9.678  0.000E+00  0.000E+00  0.000E+00  0.000E+00
  -9.578  0.000E+00  0.000E+00  0.000E+00  0.000E+00
  -9.478  0.000E+00  0.000E+00  0.000E+00  0.000E+00
  -9.378  0.000E+00  0.000E+00  0.000E+00  0.000E+00
  -9.278  0.000E+00  0.000E+00  0.000E+00  0.000E+00
  -9.178  0.000E+00  0.000E+00  0.000E+00  0.000E+00
  -9.078  0.000E+00  0.000E+00  0.000E+00  0.000E+00
  -8.978  0.000E+00  0.000E+00  0.000E+00  0.000E+00
  -8.878  0.414E-13  0.180E-16  0.372E-13  0.420E-14
  -8.778  0.210E-11  0.106E-14  0.187E-11  0.228E-12
  -8.678  0.682E-10  0.353E-13  0.606E-10  0.752E-11
  -8.578  0.169E-08  0.905E-12  0.150E-08  0.190E-09
  -8.478  0.323E-07  0.178E-10  0.285E-07  0.370E-08
  -8.378  0.472E-06  0.272E-09  0.416E-06  0.554E-07
  -8.278  0.530E-05  0.325E-08  0.465E-05  0.642E-06
  -8.178  0.458E-04  0.307E-07  0.400E-04  0.576E-05
  -8.078  0.305E-03  0.235E-06  0.264E-03  0.403E-04
  -7.978  0.157E-02  0.153E-05  0.135E-02  0.221E-03
  -7.878  0.629E-02  0.890E-05  0.531E-02  0.964E-03
  -7.778  0.197E-01  0.484E-04  0.163E-01  0.337E-02
  -7.678  0.491E-01  0.245E-03  0.392E-01  0.967E-02
  -7.578  0.995E-01  0.111E-02  0.752E-01  0.232E-01
  -7.478  0.170E+00  0.434E-02  0.119E+00  0.471E-01
  -7.378  0.260E+00  0.142E-01  0.163E+00  0.829E-01
  -7.278  0.372E+00  0.381E-01  0.206E+00  0.128E+00
  -7.178  0.515E+00  0.842E-01  0.254E+00  0.177E+00
  -7.078  0.685E+00  0.152E+00  0.305E+00  0.228E+00
  -6.978  0.852E+00  0.227E+00  0.348E+00  0.277E+00
  -6.878  0.973E+00  0.281E+00  0.371E+00  0.321E+00
  -6.778  0.101E+01  0.296E+00  0.364E+00  0.350E+00
  -6.678  0.964E+00  0.278E+00  0.327E+00  0.358E+00
  -6.578  0.872E+00  0.248E+00  0.270E+00  0.354E+00
  -6.478  0.780E+00  0.220E+00  0.210E+00  0.350E+00
  -6.378  0.706E+00  0.195E+00  0.162E+00  0.349E+00
  -6.278  0.637E+00  0.168E+00  0.130E+00  0.339E+00
  -6.178  0.560E+00  0.137E+00  0.108E+00  0.315E+00
  -6.078  0.488E+00  0.108E+00  0.968E-01  0.282E+00
  -5.978  0.445E+00  0.913E-01  0.102E+00  0.251E+00
  -5.878  0.447E+00  0.944E-01  0.126E+00  0.226E+00
  -5.778  0.488E+00  0.122E+00  0.163E+00  0.203E+00
  -5.678  0.546E+00  0.169E+00  0.196E+00  0.181E+00
  -5.578  0.598E+00  0.224E+00  0.211E+00  0.163E+00
  -5.478  0.631E+00  0.268E+00  0.207E+00  0.156E+00
  -5.378  0.646E+00  0.288E+00  0.196E+00  0.162E+00
  -5.278  0.645E+00  0.281E+00  0.194E+00  0.169E+00
  -5.178  0.641E+00  0.260E+00  0.213E+00  0.169E+00
  -5.078  0.654E+00  0.239E+00  0.251E+00  0.164E+00
  -4.978  0.697E+00  0.233E+00  0.300E+00  0.165E+00
  -4.878  0.763E+00  0.241E+00  0.341E+00  0.181E+00
  -4.778  0.817E+00  0.253E+00  0.358E+00  0.207E+00
  -4.678  0.827E+00  0.256E+00  0.342E+00  0.229E+00
  -4.578  0.783E+00  0.246E+00  0.300E+00  0.237E+00
  -4.478  0.705E+00  0.227E+00  0.247E+00  0.230E+00
  -4.378  0.618E+00  0.202E+00  0.202E+00  0.214E+00
  -4.278  0.540E+00  0.171E+00  0.174E+00  0.195E+00
  -4.178  0.486E+00  0.140E+00  0.166E+00  0.180E+00
  -4.078  0.466E+00  0.120E+00  0.173E+00  0.173E+00
  -3.978  0.481E+00  0.118E+00  0.187E+00  0.176E+00
  -3.878  0.519E+00  0.131E+00  0.202E+00  0.186E+00
  -3.778  0.564E+00  0.157E+00  0.212E+00  0.196E+00
  -3.678  0.608E+00  0.195E+00  0.211E+00  0.202E+00
  -3.578  0.652E+00  0.246E+00  0.200E+00  0.206E+00
  -3.478  0.698E+00  0.305E+00  0.181E+00  0.212E+00
  -3.378  0.745E+00  0.360E+00  0.165E+00  0.220E+00
  -3.278  0.788E+00  0.397E+00  0.158E+00  0.232E+00
  -3.178  0.821E+00  0.407E+00  0.167E+00  0.247E+00
  -3.078  0.840E+00  0.391E+00  0.187E+00  0.262E+00
  -2.978  0.837E+00  0.358E+00  0.208E+00  0.270E+00
  -2.878  0.807E+00  0.319E+00  0.221E+00  0.267E+00
  -2.778  0.752E+00  0.283E+00  0.220E+00  0.249E+00
  -2.678  0.692E+00  0.257E+00  0.214E+00  0.221E+00
  -2.578  0.642E+00  0.240E+00  0.210E+00  0.192E+00
  -2.478  0.600E+00  0.228E+00  0.204E+00  0.168E+00
  -2.378  0.547E+00  0.211E+00  0.189E+00  0.147E+00
  -2.278  0.475E+00  0.187E+00  0.161E+00  0.127E+00
  -2.178  0.396E+00  0.163E+00  0.128E+00  0.105E+00
  -2.078  0.330E+00  0.146E+00  0.994E-01  0.839E-01
  -1.978  0.284E+00  0.137E+00  0.806E-01  0.666E-01
  -1.878  0.246E+00  0.126E+00  0.680E-01  0.525E-01
  -1.778  0.200E+00  0.104E+00  0.554E-01  0.397E-01
  -1.678  0.143E+00  0.747E-01  0.404E-01  0.276E-01
  -1.578  0.890E-01  0.459E-01  0.255E-01  0.176E-01
  -1.478  0.507E-01  0.254E-01  0.144E-01  0.109E-01
  -1.378  0.303E-01  0.143E-01  0.898E-02  0.705E-02
  -1.278  0.244E-01  0.963E-02  0.927E-02  0.550E-02
  -1.178  0.298E-01  0.892E-02  0.147E-01  0.614E-02
  -1.078  0.447E-01  0.110E-01  0.247E-01  0.892E-02
  -0.978  0.666E-01  0.154E-01  0.378E-01  0.133E-01
  -0.878  0.916E-01  0.211E-01  0.520E-01  0.185E-01
  -0.778  0.114E+00  0.262E-01  0.649E-01  0.234E-01
  -0.678  0.129E+00  0.281E-01  0.735E-01  0.274E-01
  -0.578  0.130E+00  0.257E-01  0.746E-01  0.293E-01
  -0.478  0.114E+00  0.197E-01  0.663E-01  0.278E-01
  -0.378  0.847E-01  0.126E-01  0.499E-01  0.223E-01
  -0.278  0.520E-01  0.668E-02  0.309E-01  0.145E-01
  -0.178  0.257E-01  0.292E-02  0.153E-01  0.750E-02
  -0.078  0.101E-01  0.105E-02  0.602E-02  0.303E-02
   0.022  0.327E-02  0.360E-03  0.190E-02  0.100E-02
   0.122  0.175E-02  0.397E-03  0.786E-03  0.570E-03
   0.222  0.460E-02  0.137E-02  0.156E-02  0.168E-02
   0.322  0.155E-01  0.442E-02  0.501E-02  0.610E-02
   0.422  0.431E-01  0.116E-01  0.136E-01  0.178E-01
   0.522  0.971E-01  0.251E-01  0.305E-01  0.415E-01
   0.622  0.180E+00  0.455E-01  0.564E-01  0.785E-01
   0.722  0.284E+00  0.709E-01  0.886E-01  0.124E+00
   0.822  0.391E+00  0.972E-01  0.121E+00  0.172E+00
   0.922  0.487E+00  0.119E+00  0.150E+00  0.217E+00
   1.022  0.563E+00  0.132E+00  0.175E+00  0.256E+00
   1.122  0.612E+00  0.135E+00  0.194E+00  0.283E+00
   1.222  0.627E+00  0.129E+00  0.207E+00  0.291E+00
   1.322  0.610E+00  0.120E+00  0.212E+00  0.278E+00
   1.422  0.580E+00  0.116E+00  0.216E+00  0.249E+00
   1.522  0.566E+00  0.122E+00  0.227E+00  0.217E+00
   1.622  0.584E+00  0.141E+00  0.249E+00  0.195E+00
   1.722  0.620E+00  0.163E+00  0.267E+00  0.190E+00
   1.822  0.632E+00  0.173E+00  0.265E+00  0.194E+00
   1.922  0.585E+00  0.162E+00  0.233E+00  0.191E+00
   2.022  0.474E+00  0.131E+00  0.176E+00  0.167E+00
   2.122  0.329E+00  0.915E-01  0.114E+00  0.124E+00
   2.222  0.194E+00  0.552E-01  0.616E-01  0.775E-01
   2.322  0.969E-01  0.287E-01  0.279E-01  0.403E-01
   2.422  0.410E-01  0.129E-01  0.106E-01  0.175E-01
   2.522  0.147E-01  0.498E-02  0.341E-02  0.631E-02
   2.622  0.447E-02  0.164E-02  0.931E-03  0.190E-02
   2.722  0.114E-02  0.453E-03  0.217E-03  0.471E-03
   2.822  0.240E-03  0.102E-03  0.424E-04  0.957E-04
   2.922  0.408E-04  0.183E-04  0.687E-05  0.156E-04
   3.022  0.553E-05  0.259E-05  0.899E-06  0.203E-05
   3.122  0.588E-06  0.286E-06  0.936E-07  0.208E-06
