# E (eV)   ldos(E)   pdos(E)    pdos(E)    pdos(E)   
 -16.578  0.287E-06  0.314E-10  0.163E-06  0.124E-06
 -16.478  0.257E-05  0.340E-09  0.146E-05  0.110E-05
 -16.378  0.179E-04  0.379E-08  0.102E-04  0.765E-05
 -16.278  0.979E-04  0.452E-07  0.564E-04  0.414E-04
 -16.178  0.424E-03  0.509E-06  0.247E-03  0.177E-03
 -16.078  0.148E-02  0.479E-05  0.873E-03  0.601E-03
 -15.978  0.422E-02  0.356E-04  0.253E-02  0.165E-02
 -15.878  0.101E-01  0.205E-03  0.612E-02  0.374E-02
 -15.778  0.205E-01  0.911E-03  0.125E-01  0.716E-02
 -15.678  0.364E-01  0.311E-02  0.215E-01  0.119E-01
 -15.578  0.567E-01  0.816E-02  0.311E-01  0.175E-01
 -15.478  0.774E-01  0.165E-01  0.377E-01  0.232E-01
 -15.378  0.929E-01  0.260E-01  0.388E-01  0.281E-01
 -15.278  0.992E-01  0.319E-01  0.353E-01  0.320E-01
 -15.178  0.970E-01  0.311E-01  0.306E-01  0.353E-01
 -15.078  0.927E-01  0.251E-01  0.282E-01  0.394E-01
 -14.978  0.933E-01  0.189E-01  0.292E-01  0.452E-01
 -14.878  0.104E+00  0.179E-01  0.330E-01  0.529E-01
 -14.778  0.126E+00  0.255E-01  0.385E-01  0.615E-01
 -14.678  0.155E+00  0.417E-01  0.436E-01  0.699E-01
 -14.578  0.186E+00  0.626E-01  0.466E-01  0.766E-01
 -14.478  0.213E+00  0.828E-01  0.478E-01  0.827E-01
 -14.378  0.243E+00  0.101E+00  0.503E-01  0.921E-01
 -14.278  0.287E+00  0.121E+00  0.568E-01  0.109E+00
 -14.178  0.347E+00  0.149E+00  0.663E-01  0.131E+00
 -14.078  0.407E+00  0.180E+00  0.755E-01  0.152E+00
 -13.978  0.439E+00  0.199E+00  0.824E-01  0.158E+00
 -13.878  0.427E+00  0.192E+00  0.887E-01  0.146E+00
 -13.778  0.382E+00  0.165E+00  0.972E-01  0.119E+00
 -13.678  0.330E+00  0.132E+00  0.108E+00  0.897E-01
 -13.578  0.292E+00  0.105E+00  0.121E+00  0.666E-01
 -13.478  0.276E+00  0.870E-01  0.135E+00  0.541E-01
 -13.378  0.279E+00  0.786E-01  0.150E+00  0.507E-01
 -13.278  0.283E+00  0.763E-01  0.156E+00  0.506E-01
 -13.178  0.262E+00  0.741E-01  0.141E+00  0.465E-01
 -13.078  0.210E+00  0.700E-01  0.105E+00  0.357E-01
 -12.978  0.151E+00  0.668E-01  0.620E-01  0.218E-01
 -12.878  0.104E+00  0.646E-01  0.289E-01  0.104E-01
 -12.778  0.725E-01  0.580E-01  0.107E-01  0.389E-02
 -12.678  0.481E-01  0.437E-01  0.320E-02  0.114E-02
 -12.578  0.273E-01  0.262E-01  0.848E-03  0.274E-03
 -12.478  0.124E-01  0.122E-01  0.222E-03  0.582E-04
 -12.378  0.442E-02  0.435E-02  0.603E-04  0.122E-04
 -12.278  0.121E-02  0.119E-02  0.155E-04  0.260E-05
 -12.178  0.254E-03  0.250E-03  0.335E-05  0.511E-06
 -12.078  0.409E-04  0.402E-04  0.574E-06  0.837E-07
 -11.978  0.503E-05  0.495E-05  0.763E-07  0.108E-07
 -11.878  0.475E-06  0.466E-06  0.778E-08  0.109E-08
 -11.778  0.343E-07  0.336E-07  0.607E-09  0.841E-10
 -11.678  0.189E-08  0.185E-08  0.362E-10  0.497E-11
 -11.578  0.801E-10  0.783E-10  0.165E-11  0.225E-12
 -11.478  0.260E-11  0.253E-11  0.576E-13  0.779E-14
 -11.378  0.597E-13  0.580E-13  0.152E-14  0.202E-15
 -11.278  0.000E+00  0.000E+00  0.000E+00  0.000E+00
 -11.178  0.000E+00  0.000E+00  0.000E+00  0.000E+00
 -11.078  0.000E+00  0.000E+00  0.000E+00  0.000E+00
 -10.978  0.000E+00  0.000E+00  0.000E+00  0.000E+00
 -10.878  0.000E+00  0.000E+00  0.000E+00  0.000E+00
 -10.778  0.000E+00  0.000E+00  0.000E+00  0.000E+00
 -10.678  0.000E+00  0.000E+00  0.000E+00  0.000E+00
 -10.578  0.000E+00  0.000E+00  0.000E+00  0.000E+00
 -10.478  0.000E+00  0.000E+00  0.000E+00  0.000E+00
 -10.378  0.000E+00  0.000E+00  0.000E+00  0.000E+00
 -10.278  0.000E+00  0.000E+00  0.000E+00  0.000E+00
 -10.178  0.000E+00  0.000E+00  0.000E+00  0.000E+00
 -10.078  0.000E+00  0.000E+00  0.000E+00  0.000E+00
  -9.978  0.000E+00  0.000E+00  0.000E+00  0.000E+00
  -9.878  0.000E+00  0.000E+00  0.000E+00  0.000E+00
  -9.778  0.000E+00  0.000E+00  0.000E+00  0.000E+00
  -9.678  0.000E+00  0.000E+00  0.000E+00  0.000E+00
  -9.578  0.000E+00  0.000E+00  0.000E+00  0.000E+00
  -9.478  0.000E+00  0.000E+00  0.000E+00  0.000E+00
  -9.378  0.000E+00  0.000E+00  0.000E+00  0.000E+00
  -9.278  0.000E+00  0.000E+00  0.000E+00  0.000E+00
  -9.178  0.000E+00  0.000E+00  0.000E+00  0.000E+00
  -9.078  0.000E+00  0.000E+00  0.000E+00  0.000E+00
  -8.978  0.000E+00  0.000E+00  0.000E+00  0.000E+00
  -8.878  0.119E-13  0.357E-14  0.805E-14  0.291E-15
  -8.778  0.636E-12  0.205E-12  0.411E-12  0.193E-13
  -8.678  0.208E-10  0.680E-11  0.133E-10  0.651E-12
  -8.578  0.521E-09  0.173E-09  0.331E-09  0.169E-10
  -8.478  0.100E-07  0.337E-08  0.631E-08  0.337E-09
  -8.378  0.148E-06  0.505E-07  0.923E-07  0.520E-08
  -8.278  0.168E-05  0.584E-06  0.104E-05  0.620E-07
  -8.178  0.147E-04  0.522E-05  0.895E-05  0.573E-06
  -8.078  0.996E-04  0.360E-04  0.594E-04  0.414E-05
  -7.978  0.521E-03  0.193E-03  0.304E-03  0.235E-04
  -7.878  0.211E-02  0.807E-03  0.120E-02  0.107E-03
  -7.778  0.671E-02  0.264E-02  0.367E-02  0.393E-03
  -7.678  0.168E-01  0.684E-02  0.873E-02  0.120E-02
  -7.578  0.334E-01  0.141E-01  0.163E-01  0.308E-02
  -7.478  0.540E-01  0.233E-01  0.240E-01  0.676E-02
  -7.378  0.725E-01  0.311E-01  0.287E-01  0.127E-01
  -7.278  0.835E-01  0.340E-01  0.289E-01  0.206E-01
  -7.178  0.861E-01  0.312E-01  0.259E-01  0.290E-01
  -7.078  0.841E-01  0.254E-01  0.222E-01  0.364E-01
  -6.978  0.822E-01  0.211E-01  0.198E-01  0.413E-01
  -6.878  0.821E-01  0.203E-01  0.187E-01  0.430E-01
  -6.778  0.821E-01  0.224E-01  0.187E-01  0.411E-01
  -6.678  0.797E-01  0.253E-01  0.187E-01  0.357E-01
  -6.578  0.740E-01  0.279E-01  0.181E-01  0.280E-01
  -6.478  0.664E-01  0.298E-01  0.166E-01  0.200E-01
  -6.378  0.590E-01  0.310E-01  0.148E-01  0.132E-01
  -6.278  0.528E-01  0.311E-01  0.132E-01  0.852E-02
  -6.178  0.480E-01  0.301E-01  0.121E-01  0.579E-02
  -6.078  0.454E-01  0.287E-01  0.118E-01  0.482E-02
  -5.978  0.460E-01  0.279E-01  0.127E-01  0.547E-02
  -5.878  0.508E-01  0.283E-01  0.149E-01  0.766E-02
  -5.778  0.597E-01  0.299E-01  0.181E-01  0.116E-01
  -5.678  0.712E-01  0.318E-01  0.214E-01  0.181E-01
  -5.578  0.838E-01  0.320E-01  0.241E-01  0.277E-01
  -5.478  0.954E-01  0.300E-01  0.266E-01  0.388E-01
  -5.378  0.103E+00  0.265E-01  0.290E-01  0.477E-01
  -5.278  0.105E+00  0.236E-01  0.310E-01  0.506E-01
  -5.178  0.101E+00  0.230E-01  0.314E-01  0.466E-01
  -5.078  0.939E-01  0.255E-01  0.300E-01  0.385E-01
  -4.978  0.891E-01  0.310E-01  0.278E-01  0.303E-01
  -4.878  0.898E-01  0.383E-01  0.262E-01  0.252E-01
  -4.778  0.943E-01  0.449E-01  0.255E-01  0.238E-01
  -4.678  0.975E-01  0.486E-01  0.247E-01  0.243E-01
  -4.578  0.955E-01  0.486E-01  0.229E-01  0.240E-01
  -4.478  0.878E-01  0.454E-01  0.202E-01  0.221E-01
  -4.378  0.767E-01  0.397E-01  0.175E-01  0.196E-01
  -4.278  0.654E-01  0.325E-01  0.154E-01  0.175E-01
  -4.178  0.569E-01  0.255E-01  0.147E-01  0.167E-01
  -4.078  0.526E-01  0.200E-01  0.155E-01  0.172E-01
  -3.978  0.517E-01  0.165E-01  0.171E-01  0.181E-01
  -3.878  0.516E-01  0.149E-01  0.182E-01  0.184E-01
  -3.778  0.506E-01  0.150E-01  0.182E-01  0.174E-01
  -3.678  0.493E-01  0.163E-01  0.173E-01  0.157E-01
  -3.578  0.493E-01  0.182E-01  0.163E-01  0.148E-01
  -3.478  0.515E-01  0.201E-01  0.160E-01  0.153E-01
  -3.378  0.556E-01  0.218E-01  0.167E-01  0.171E-01
  -3.278  0.600E-01  0.228E-01  0.181E-01  0.192E-01
  -3.178  0.638E-01  0.229E-01  0.199E-01  0.210E-01
  -3.078  0.664E-01  0.222E-01  0.217E-01  0.225E-01
  -2.978  0.677E-01  0.209E-01  0.233E-01  0.235E-01
  -2.878  0.677E-01  0.194E-01  0.242E-01  0.241E-01
  -2.778  0.667E-01  0.181E-01  0.244E-01  0.243E-01
  -2.678  0.643E-01  0.169E-01  0.233E-01  0.241E-01
  -2.578  0.601E-01  0.155E-01  0.210E-01  0.235E-01
  -2.478  0.538E-01  0.137E-01  0.180E-01  0.220E-01
  -2.378  0.462E-01  0.114E-01  0.153E-01  0.195E-01
  -2.278  0.397E-01  0.903E-02  0.141E-01  0.166E-01
  -2.178  0.371E-01  0.777E-02  0.148E-01  0.146E-01
  -2.078  0.396E-01  0.824E-02  0.172E-01  0.141E-01
  -1.978  0.448E-01  0.991E-02  0.201E-01  0.148E-01
  -1.878  0.475E-01  0.112E-01  0.215E-01  0.148E-01
  -1.778  0.434E-01  0.106E-01  0.199E-01  0.129E-01
  -1.678  0.329E-01  0.820E-02  0.154E-01  0.934E-02
  -1.578  0.206E-01  0.524E-02  0.976E-02  0.560E-02
  -1.478  0.109E-01  0.286E-02  0.511E-02  0.297E-02
  -1.378  0.573E-02  0.148E-02  0.229E-02  0.197E-02
  -1.278  0.453E-02  0.922E-03  0.103E-02  0.258E-02
  -1.178  0.631E-02  0.859E-03  0.750E-03  0.470E-02
  -1.078  0.101E-01  0.100E-02  0.108E-02  0.798E-02
  -0.978  0.148E-01  0.115E-02  0.182E-02  0.118E-01
  -0.878  0.197E-01  0.121E-02  0.275E-02  0.158E-01
  -0.778  0.244E-01  0.120E-02  0.351E-02  0.197E-01
  -0.678  0.282E-01  0.110E-02  0.373E-02  0.234E-01
  -0.578  0.298E-01  0.916E-03  0.335E-02  0.255E-01
  -0.478  0.276E-01  0.660E-03  0.257E-02  0.244E-01
  -0.378  0.217E-01  0.401E-03  0.171E-02  0.196E-01
  -0.278  0.139E-01  0.202E-03  0.980E-03  0.128E-01
  -0.178  0.717E-02  0.836E-04  0.471E-03  0.662E-02
  -0.078  0.290E-02  0.282E-04  0.185E-03  0.269E-02
   0.022  0.919E-03  0.830E-05  0.597E-04  0.851E-03
   0.122  0.262E-03  0.573E-05  0.281E-04  0.228E-03
   0.222  0.235E-03  0.194E-04  0.700E-04  0.145E-03
   0.322  0.741E-03  0.721E-04  0.255E-03  0.414E-03
   0.422  0.223E-02  0.224E-03  0.775E-03  0.123E-02
   0.522  0.542E-02  0.582E-03  0.192E-02  0.292E-02
   0.622  0.108E-01  0.130E-02  0.397E-02  0.556E-02
   0.722  0.181E-01  0.251E-02  0.697E-02  0.858E-02
   0.822  0.258E-01  0.424E-02  0.107E-01  0.109E-01
   0.922  0.325E-01  0.630E-02  0.146E-01  0.116E-01
   1.022  0.370E-01  0.835E-02  0.181E-01  0.105E-01
   1.122  0.391E-01  0.101E-01  0.205E-01  0.843E-02
   1.222  0.393E-01  0.116E-01  0.213E-01  0.646E-02
   1.322  0.383E-01  0.126E-01  0.203E-01  0.540E-02
   1.422  0.366E-01  0.131E-01  0.178E-01  0.568E-02
   1.522  0.350E-01  0.128E-01  0.148E-01  0.740E-02
   1.622  0.342E-01  0.118E-01  0.121E-01  0.103E-01
   1.722  0.337E-01  0.103E-01  0.102E-01  0.132E-01
   1.822  0.321E-01  0.849E-02  0.878E-02  0.148E-01
   1.922  0.281E-01  0.659E-02  0.732E-02  0.142E-01
   2.022  0.219E-01  0.472E-02  0.560E-02  0.116E-01
   2.122  0.150E-01  0.308E-02  0.378E-02  0.811E-02
   2.222  0.899E-02  0.183E-02  0.219E-02  0.497E-02
   2.322  0.477E-02  0.100E-02  0.107E-02  0.270E-02
   2.422  0.224E-02  0.500E-03  0.434E-03  0.130E-02
   2.522  0.917E-03  0.221E-03  0.147E-03  0.549E-03
   2.622  0.319E-03  0.827E-04  0.415E-04  0.195E-03
   2.722  0.918E-04  0.252E-04  0.974E-05  0.569E-04
   2.822  0.212E-04  0.609E-05  0.189E-05  0.133E-04
   2.922  0.388E-05  0.115E-05  0.300E-06  0.243E-05
   3.022  0.553E-06  0.168E-06  0.384E-07  0.347E-06
   3.122  0.611E-07  0.189E-07  0.390E-08  0.384E-07
