# E (eV)   ldos(E)   pdos(E)    pdos(E)    pdos(E)   
 -16.578  0.229E-06  0.403E-09  0.132E-06  0.970E-07
 -16.478  0.201E-05  0.347E-08  0.116E-05  0.849E-06
 -16.378  0.137E-04  0.236E-07  0.795E-05  0.576E-05
 -16.278  0.733E-04  0.136E-06  0.427E-04  0.305E-04
 -16.178  0.308E-03  0.731E-06  0.181E-03  0.127E-03
 -16.078  0.104E-02  0.415E-05  0.614E-03  0.418E-03
 -15.978  0.284E-02  0.241E-04  0.170E-02  0.111E-02
 -15.878  0.652E-02  0.125E-03  0.397E-02  0.242E-02
 -15.778  0.130E-01  0.531E-03  0.795E-02  0.447E-02
 -15.678  0.229E-01  0.177E-02  0.140E-01  0.717E-02
 -15.578  0.367E-01  0.459E-02  0.218E-01  0.102E-01
 -15.478  0.526E-01  0.921E-02  0.302E-01  0.132E-01
 -15.378  0.667E-01  0.144E-01  0.368E-01  0.156E-01
 -15.278  0.750E-01  0.176E-01  0.396E-01  0.178E-01
 -15.178  0.770E-01  0.172E-01  0.386E-01  0.212E-01
 -15.078  0.779E-01  0.144E-01  0.357E-01  0.278E-01
 -14.978  0.856E-01  0.127E-01  0.339E-01  0.390E-01
 -14.878  0.108E+00  0.166E-01  0.356E-01  0.556E-01
 -14.778  0.150E+00  0.305E-01  0.416E-01  0.782E-01
 -14.678  0.212E+00  0.558E-01  0.513E-01  0.105E+00
 -14.578  0.280E+00  0.872E-01  0.620E-01  0.131E+00
 -14.478  0.331E+00  0.114E+00  0.696E-01  0.147E+00
 -14.378  0.348E+00  0.128E+00  0.710E-01  0.149E+00
 -14.278  0.340E+00  0.131E+00  0.664E-01  0.142E+00
 -14.178  0.323E+00  0.133E+00  0.583E-01  0.131E+00
 -14.078  0.308E+00  0.139E+00  0.512E-01  0.118E+00
 -13.978  0.298E+00  0.146E+00  0.510E-01  0.101E+00
 -13.878  0.294E+00  0.148E+00  0.624E-01  0.831E-01
 -13.778  0.296E+00  0.144E+00  0.846E-01  0.669E-01
 -13.678  0.300E+00  0.135E+00  0.110E+00  0.556E-01
 -13.578  0.302E+00  0.121E+00  0.130E+00  0.514E-01
 -13.478  0.302E+00  0.102E+00  0.144E+00  0.555E-01
 -13.378  0.304E+00  0.848E-01  0.154E+00  0.652E-01
 -13.278  0.301E+00  0.720E-01  0.157E+00  0.717E-01
 -13.178  0.271E+00  0.627E-01  0.142E+00  0.665E-01
 -13.078  0.211E+00  0.546E-01  0.107E+00  0.496E-01
 -12.978  0.141E+00  0.484E-01  0.639E-01  0.291E-01
 -12.878  0.876E-01  0.440E-01  0.302E-01  0.134E-01
 -12.778  0.540E-01  0.379E-01  0.113E-01  0.483E-02
 -12.678  0.328E-01  0.280E-01  0.348E-02  0.140E-02
 -12.578  0.178E-01  0.165E-01  0.948E-03  0.348E-03
 -12.478  0.796E-02  0.763E-02  0.256E-03  0.823E-04
 -12.378  0.280E-02  0.271E-02  0.707E-04  0.202E-04
 -12.278  0.760E-03  0.738E-03  0.181E-04  0.486E-05
 -12.178  0.159E-03  0.154E-03  0.387E-05  0.102E-05
 -12.078  0.254E-04  0.246E-04  0.655E-06  0.171E-06
 -11.978  0.312E-05  0.301E-05  0.859E-07  0.225E-07
 -11.878  0.293E-06  0.282E-06  0.866E-08  0.227E-08
 -11.778  0.211E-07  0.202E-07  0.669E-09  0.176E-09
 -11.678  0.116E-08  0.111E-08  0.396E-10  0.104E-10
 -11.578  0.490E-10  0.468E-10  0.179E-11  0.472E-12
 -11.478  0.158E-11  0.151E-11  0.620E-13  0.164E-13
 -11.378  0.355E-13  0.334E-13  0.162E-14  0.429E-15
 -11.278  0.000E+00  0.000E+00  0.000E+00  0.000E+00
 -11.178  0.000E+00  0.000E+00  0.000E+00  0.000E+00
 -11.078  0.000E+00  0.000E+00  0.000E+00  0.000E+00
 -10.978  0.000E+00  0.000E+00  0.000E+00  0.000E+00
 -10.878  0.000E+00  0.000E+00  0.000E+00  0.000E+00
 -10.778  0.000E+00  0.000E+00  0.000E+00  0.000E+00
 -10.678  0.000E+00  0.000E+00  0.000E+00  0.000E+00
 -10.578  0.000E+00  0.000E+00  0.000E+00  0.000E+00
 -10.478  0.000E+00  0.000E+00  0.000E+00  0.000E+00
 -10.378  0.000E+00  0.000E+00  0.000E+00  0.000E+00
 -10.278  0.000E+00  0.000E+00  0.000E+00  0.000E+00
 -10.178  0.000E+00  0.000E+00  0.000E+00  0.000E+00
 -10.078  0.000E+00  0.000E+00  0.000E+00  0.000E+00
  -9.978  0.000E+00  0.000E+00  0.000E+00  0.000E+00
  -9.878  0.000E+00  0.000E+00  0.000E+00  0.000E+00
  -9.778  0.000E+00  0.000E+00  0.000E+00  0.000E+00
  -9.678  0.000E+00  0.000E+00  0.000E+00  0.000E+00
  -9.578  0.000E+00  0.000E+00  0.000E+00  0.000E+00
  -9.478  0.000E+00  0.000E+00  0.000E+00  0.000E+00
  -9.378  0.000E+00  0.000E+00  0.000E+00  0.000E+00
  -9.278  0.000E+00  0.000E+00  0.000E+00  0.000E+00
  -9.178  0.000E+00  0.000E+00  0.000E+00  0.000E+00
  -9.078  0.000E+00  0.000E+00  0.000E+00  0.000E+00
  -8.978  0.000E+00  0.000E+00  0.000E+00  0.000E+00
  -8.878  0.985E-14  0.337E-14  0.440E-14  0.208E-14
  -8.778  0.540E-12  0.199E-12  0.231E-12  0.110E-12
  -8.678  0.177E-10  0.660E-11  0.752E-11  0.361E-11
  -8.578  0.447E-09  0.168E-09  0.188E-09  0.905E-10
  -8.478  0.863E-08  0.330E-08  0.359E-08  0.174E-08
  -8.378  0.128E-06  0.498E-07  0.527E-07  0.257E-07
  -8.278  0.147E-05  0.580E-06  0.595E-06  0.293E-06
  -8.178  0.129E-04  0.522E-05  0.516E-05  0.257E-05
  -8.078  0.882E-04  0.364E-04  0.345E-04  0.174E-04
  -7.978  0.465E-03  0.197E-03  0.177E-03  0.910E-04
  -7.878  0.191E-02  0.834E-03  0.706E-03  0.371E-03
  -7.778  0.614E-02  0.277E-02  0.218E-02  0.118E-02
  -7.678  0.156E-01  0.728E-02  0.530E-02  0.299E-02
  -7.578  0.316E-01  0.153E-01  0.103E-01  0.608E-02
  -7.478  0.521E-01  0.257E-01  0.163E-01  0.101E-01
  -7.378  0.716E-01  0.352E-01  0.222E-01  0.142E-01
  -7.278  0.842E-01  0.396E-01  0.272E-01  0.174E-01
  -7.178  0.883E-01  0.380E-01  0.308E-01  0.195E-01
  -7.078  0.868E-01  0.331E-01  0.321E-01  0.217E-01
  -6.978  0.846E-01  0.284E-01  0.303E-01  0.258E-01
  -6.878  0.842E-01  0.254E-01  0.262E-01  0.326E-01
  -6.778  0.845E-01  0.235E-01  0.218E-01  0.392E-01
  -6.678  0.821E-01  0.226E-01  0.183E-01  0.413E-01
  -6.578  0.751E-01  0.231E-01  0.153E-01  0.366E-01
  -6.478  0.647E-01  0.246E-01  0.124E-01  0.276E-01
  -6.378  0.536E-01  0.255E-01  0.946E-02  0.187E-01
  -6.278  0.438E-01  0.240E-01  0.713E-02  0.126E-01
  -6.178  0.366E-01  0.211E-01  0.609E-02  0.942E-02
  -6.078  0.347E-01  0.198E-01  0.694E-02  0.800E-02
  -5.978  0.406E-01  0.228E-01  0.999E-02  0.783E-02
  -5.878  0.541E-01  0.300E-01  0.150E-01  0.914E-02
  -5.778  0.715E-01  0.377E-01  0.212E-01  0.126E-01
  -5.678  0.887E-01  0.418E-01  0.278E-01  0.191E-01
  -5.578  0.104E+00  0.407E-01  0.341E-01  0.290E-01
  -5.478  0.116E+00  0.365E-01  0.389E-01  0.408E-01
  -5.378  0.123E+00  0.321E-01  0.405E-01  0.508E-01
  -5.278  0.122E+00  0.293E-01  0.382E-01  0.549E-01
  -5.178  0.114E+00  0.283E-01  0.333E-01  0.520E-01
  -5.078  0.102E+00  0.295E-01  0.281E-01  0.447E-01
  -4.978  0.948E-01  0.333E-01  0.245E-01  0.370E-01
  -4.878  0.933E-01  0.386E-01  0.230E-01  0.317E-01
  -4.778  0.953E-01  0.433E-01  0.228E-01  0.292E-01
  -4.678  0.950E-01  0.451E-01  0.221E-01  0.277E-01
  -4.578  0.884E-01  0.436E-01  0.200E-01  0.248E-01
  -4.478  0.761E-01  0.393E-01  0.168E-01  0.200E-01
  -4.378  0.617E-01  0.329E-01  0.142E-01  0.147E-01
  -4.278  0.497E-01  0.255E-01  0.134E-01  0.107E-01
  -4.178  0.427E-01  0.184E-01  0.150E-01  0.929E-02
  -4.078  0.410E-01  0.130E-01  0.180E-01  0.995E-02
  -3.978  0.423E-01  0.998E-02  0.207E-01  0.116E-01
  -3.878  0.441E-01  0.924E-02  0.215E-01  0.133E-01
  -3.778  0.452E-01  0.101E-01  0.204E-01  0.147E-01
  -3.678  0.459E-01  0.117E-01  0.184E-01  0.158E-01
  -3.578  0.469E-01  0.136E-01  0.166E-01  0.167E-01
  -3.478  0.483E-01  0.156E-01  0.157E-01  0.170E-01
  -3.378  0.498E-01  0.172E-01  0.158E-01  0.168E-01
  -3.278  0.513E-01  0.181E-01  0.165E-01  0.167E-01
  -3.178  0.532E-01  0.184E-01  0.175E-01  0.173E-01
  -3.078  0.557E-01  0.184E-01  0.184E-01  0.189E-01
  -2.978  0.578E-01  0.179E-01  0.190E-01  0.208E-01
  -2.878  0.584E-01  0.170E-01  0.191E-01  0.223E-01
  -2.778  0.578E-01  0.159E-01  0.189E-01  0.229E-01
  -2.678  0.575E-01  0.152E-01  0.190E-01  0.233E-01
  -2.578  0.588E-01  0.152E-01  0.195E-01  0.240E-01
  -2.478  0.612E-01  0.155E-01  0.203E-01  0.254E-01
  -2.378  0.631E-01  0.152E-01  0.210E-01  0.269E-01
  -2.278  0.635E-01  0.139E-01  0.215E-01  0.281E-01
  -2.178  0.636E-01  0.127E-01  0.221E-01  0.287E-01
  -2.078  0.644E-01  0.130E-01  0.228E-01  0.287E-01
  -1.978  0.645E-01  0.145E-01  0.225E-01  0.275E-01
  -1.878  0.603E-01  0.154E-01  0.206E-01  0.244E-01
  -1.778  0.497E-01  0.142E-01  0.165E-01  0.190E-01
  -1.678  0.352E-01  0.112E-01  0.114E-01  0.125E-01
  -1.578  0.216E-01  0.799E-02  0.675E-02  0.689E-02
  -1.478  0.124E-01  0.558E-02  0.347E-02  0.333E-02
  -1.378  0.749E-02  0.404E-02  0.173E-02  0.172E-02
  -1.278  0.569E-02  0.308E-02  0.115E-02  0.147E-02
  -1.178  0.599E-02  0.250E-02  0.135E-02  0.214E-02
  -1.078  0.787E-02  0.224E-02  0.205E-02  0.358E-02
  -0.978  0.109E-01  0.224E-02  0.297E-02  0.573E-02
  -0.878  0.147E-01  0.241E-02  0.381E-02  0.847E-02
  -0.778  0.182E-01  0.263E-02  0.430E-02  0.113E-01
  -0.678  0.202E-01  0.269E-02  0.422E-02  0.133E-01
  -0.578  0.195E-01  0.238E-02  0.355E-02  0.135E-01
  -0.478  0.161E-01  0.174E-02  0.253E-02  0.119E-01
  -0.378  0.113E-01  0.103E-02  0.152E-02  0.874E-02
  -0.278  0.656E-02  0.489E-03  0.766E-03  0.531E-02
  -0.178  0.311E-02  0.186E-03  0.324E-03  0.260E-02
  -0.078  0.118E-02  0.573E-04  0.113E-03  0.101E-02
   0.022  0.359E-03  0.153E-04  0.344E-04  0.309E-03
   0.122  0.114E-03  0.845E-05  0.211E-04  0.845E-04
   0.222  0.161E-03  0.228E-04  0.673E-04  0.711E-04
   0.322  0.547E-03  0.711E-04  0.250E-03  0.226E-03
   0.422  0.164E-02  0.189E-03  0.750E-03  0.699E-03
   0.522  0.403E-02  0.439E-03  0.182E-02  0.178E-02
   0.622  0.831E-02  0.937E-03  0.361E-02  0.376E-02
   0.722  0.146E-01  0.186E-02  0.606E-02  0.667E-02
   0.822  0.222E-01  0.335E-02  0.887E-02  0.999E-02
   0.922  0.297E-01  0.537E-02  0.118E-01  0.126E-01
   1.022  0.356E-01  0.764E-02  0.146E-01  0.134E-01
   1.122  0.391E-01  0.969E-02  0.173E-01  0.121E-01
   1.222  0.401E-01  0.111E-01  0.194E-01  0.960E-02
   1.322  0.391E-01  0.115E-01  0.202E-01  0.739E-02
   1.422  0.366E-01  0.109E-01  0.192E-01  0.656E-02
   1.522  0.339E-01  0.991E-02  0.165E-01  0.750E-02
   1.622  0.323E-01  0.892E-02  0.135E-01  0.988E-02
   1.722  0.320E-01  0.809E-02  0.112E-01  0.127E-01
   1.822  0.314E-01  0.725E-02  0.978E-02  0.144E-01
   1.922  0.286E-01  0.620E-02  0.860E-02  0.138E-01
   2.022  0.231E-01  0.488E-02  0.704E-02  0.111E-01
   2.122  0.159E-01  0.339E-02  0.508E-02  0.747E-02
   2.222  0.936E-02  0.202E-02  0.316E-02  0.418E-02
   2.322  0.468E-02  0.101E-02  0.170E-02  0.197E-02
   2.422  0.201E-02  0.423E-03  0.790E-03  0.795E-03
   2.522  0.741E-03  0.148E-03  0.317E-03  0.276E-03
   2.622  0.234E-03  0.438E-04  0.108E-03  0.821E-04
   2.722  0.619E-04  0.108E-04  0.304E-04  0.207E-04
   2.822  0.135E-04  0.221E-05  0.692E-05  0.434E-05
   2.922  0.235E-05  0.366E-06  0.125E-05  0.737E-06
   3.022  0.325E-06  0.484E-07  0.177E-06  0.996E-07
   3.122  0.351E-07  0.505E-08  0.194E-07  0.106E-07
