# E (eV)   ldos(E)   pdos(E)    pdos(E)    pdos(E)   
 -16.578  0.254E-06  0.174E-10  0.165E-06  0.890E-07
 -16.478  0.226E-05  0.178E-09  0.143E-05  0.827E-06
 -16.378  0.156E-04  0.176E-08  0.960E-05  0.599E-05
 -16.278  0.842E-04  0.186E-07  0.502E-04  0.340E-04
 -16.178  0.359E-03  0.196E-06  0.206E-03  0.153E-03
 -16.078  0.122E-02  0.180E-05  0.670E-03  0.549E-03
 -15.978  0.338E-02  0.133E-04  0.176E-02  0.160E-02
 -15.878  0.778E-02  0.772E-04  0.384E-02  0.387E-02
 -15.778  0.153E-01  0.344E-03  0.706E-02  0.787E-02
 -15.678  0.262E-01  0.118E-02  0.112E-01  0.138E-01
 -15.578  0.398E-01  0.314E-02  0.155E-01  0.211E-01
 -15.478  0.536E-01  0.645E-02  0.190E-01  0.281E-01
 -15.378  0.642E-01  0.103E-01  0.209E-01  0.330E-01
 -15.278  0.691E-01  0.129E-01  0.216E-01  0.346E-01
 -15.178  0.696E-01  0.131E-01  0.225E-01  0.341E-01
 -15.078  0.709E-01  0.113E-01  0.249E-01  0.347E-01
 -14.978  0.790E-01  0.989E-02  0.293E-01  0.398E-01
 -14.878  0.994E-01  0.121E-01  0.354E-01  0.519E-01
 -14.778  0.137E+00  0.211E-01  0.438E-01  0.718E-01
 -14.678  0.192E+00  0.391E-01  0.549E-01  0.977E-01
 -14.578  0.254E+00  0.643E-01  0.669E-01  0.123E+00
 -14.478  0.306E+00  0.906E-01  0.759E-01  0.139E+00
 -14.378  0.331E+00  0.112E+00  0.798E-01  0.139E+00
 -14.278  0.331E+00  0.126E+00  0.797E-01  0.126E+00
 -14.178  0.319E+00  0.135E+00  0.789E-01  0.106E+00
 -14.078  0.305E+00  0.141E+00  0.800E-01  0.844E-01
 -13.978  0.296E+00  0.145E+00  0.838E-01  0.676E-01
 -13.878  0.299E+00  0.150E+00  0.899E-01  0.595E-01
 -13.778  0.316E+00  0.157E+00  0.968E-01  0.616E-01
 -13.678  0.338E+00  0.165E+00  0.103E+00  0.700E-01
 -13.578  0.350E+00  0.161E+00  0.112E+00  0.770E-01
 -13.478  0.349E+00  0.143E+00  0.128E+00  0.781E-01
 -13.378  0.343E+00  0.119E+00  0.149E+00  0.746E-01
 -13.278  0.328E+00  0.986E-01  0.162E+00  0.680E-01
 -13.178  0.291E+00  0.847E-01  0.149E+00  0.568E-01
 -13.078  0.228E+00  0.756E-01  0.111E+00  0.407E-01
 -12.978  0.161E+00  0.717E-01  0.656E-01  0.238E-01
 -12.878  0.112E+00  0.706E-01  0.302E-01  0.110E-01
 -12.778  0.799E-01  0.650E-01  0.109E-01  0.405E-02
 -12.678  0.546E-01  0.503E-01  0.309E-02  0.120E-02
 -12.578  0.320E-01  0.310E-01  0.717E-03  0.301E-03
 -12.478  0.150E-01  0.148E-01  0.147E-03  0.717E-04
 -12.378  0.549E-02  0.544E-02  0.300E-04  0.174E-04
 -12.278  0.155E-02  0.154E-02  0.623E-05  0.411E-05
 -12.178  0.334E-03  0.332E-03  0.121E-05  0.842E-06
 -12.078  0.554E-04  0.551E-04  0.197E-06  0.139E-06
 -11.978  0.704E-05  0.699E-05  0.254E-07  0.180E-07
 -11.878  0.685E-06  0.680E-06  0.254E-08  0.179E-08
 -11.778  0.510E-07  0.507E-07  0.195E-09  0.136E-09
 -11.678  0.291E-08  0.289E-08  0.115E-10  0.798E-11
 -11.578  0.127E-09  0.126E-09  0.519E-12  0.357E-12
 -11.478  0.424E-11  0.421E-11  0.179E-13  0.122E-13
 -11.378  0.104E-12  0.103E-12  0.466E-15  0.316E-15
 -11.278  0.000E+00  0.000E+00  0.000E+00  0.000E+00
 -11.178  0.000E+00  0.000E+00  0.000E+00  0.000E+00
 -11.078  0.000E+00  0.000E+00  0.000E+00  0.000E+00
 -10.978  0.000E+00  0.000E+00  0.000E+00  0.000E+00
 -10.878  0.000E+00  0.000E+00  0.000E+00  0.000E+00
 -10.778  0.000E+00  0.000E+00  0.000E+00  0.000E+00
 -10.678  0.000E+00  0.000E+00  0.000E+00  0.000E+00
 -10.578  0.000E+00  0.000E+00  0.000E+00  0.000E+00
 -10.478  0.000E+00  0.000E+00  0.000E+00  0.000E+00
 -10.378  0.000E+00  0.000E+00  0.000E+00  0.000E+00
 -10.278  0.000E+00  0.000E+00  0.000E+00  0.000E+00
 -10.178  0.000E+00  0.000E+00  0.000E+00  0.000E+00
 -10.078  0.000E+00  0.000E+00  0.000E+00  0.000E+00
  -9.978  0.000E+00  0.000E+00  0.000E+00  0.000E+00
  -9.878  0.000E+00  0.000E+00  0.000E+00  0.000E+00
  -9.778  0.000E+00  0.000E+00  0.000E+00  0.000E+00
  -9.678  0.000E+00  0.000E+00  0.000E+00  0.000E+00
  -9.578  0.000E+00  0.000E+00  0.000E+00  0.000E+00
  -9.478  0.000E+00  0.000E+00  0.000E+00  0.000E+00
  -9.378  0.000E+00  0.000E+00  0.000E+00  0.000E+00
  -9.278  0.000E+00  0.000E+00  0.000E+00  0.000E+00
  -9.178  0.000E+00  0.000E+00  0.000E+00  0.000E+00
  -9.078  0.000E+00  0.000E+00  0.000E+00  0.000E+00
  -8.978  0.000E+00  0.000E+00  0.000E+00  0.000E+00
  -8.878  0.940E-14  0.298E-14  0.522E-14  0.120E-14
  -8.778  0.514E-12  0.170E-12  0.267E-12  0.772E-13
  -8.678  0.169E-10  0.560E-11  0.868E-11  0.259E-11
  -8.578  0.424E-09  0.141E-09  0.216E-09  0.668E-10
  -8.478  0.818E-08  0.274E-08  0.411E-08  0.133E-08
  -8.378  0.121E-06  0.409E-07  0.602E-07  0.202E-07
  -8.278  0.138E-05  0.469E-06  0.676E-06  0.238E-06
  -8.178  0.121E-04  0.414E-05  0.584E-05  0.216E-05
  -8.078  0.821E-04  0.281E-04  0.388E-04  0.152E-04
  -7.978  0.429E-03  0.147E-03  0.199E-03  0.822E-04
  -7.878  0.173E-02  0.597E-03  0.788E-03  0.347E-03
  -7.778  0.544E-02  0.188E-02  0.242E-02  0.114E-02
  -7.678  0.134E-01  0.458E-02  0.580E-02  0.299E-02
  -7.578  0.260E-01  0.874E-02  0.110E-01  0.629E-02
  -7.478  0.409E-01  0.131E-01  0.168E-01  0.110E-01
  -7.378  0.536E-01  0.159E-01  0.213E-01  0.164E-01
  -7.278  0.614E-01  0.161E-01  0.236E-01  0.217E-01
  -7.178  0.652E-01  0.150E-01  0.244E-01  0.259E-01
  -7.078  0.685E-01  0.151E-01  0.254E-01  0.280E-01
  -6.978  0.741E-01  0.179E-01  0.279E-01  0.283E-01
  -6.878  0.828E-01  0.230E-01  0.319E-01  0.278E-01
  -6.778  0.913E-01  0.289E-01  0.350E-01  0.275E-01
  -6.678  0.941E-01  0.337E-01  0.340E-01  0.263E-01
  -6.578  0.874E-01  0.361E-01  0.283E-01  0.230E-01
  -6.478  0.738E-01  0.358E-01  0.204E-01  0.177E-01
  -6.378  0.591E-01  0.332E-01  0.138E-01  0.120E-01
  -6.278  0.475E-01  0.295E-01  0.104E-01  0.767E-02
  -6.178  0.405E-01  0.258E-01  0.930E-02  0.541E-02
  -6.078  0.381E-01  0.233E-01  0.953E-02  0.522E-02
  -5.978  0.405E-01  0.228E-01  0.107E-01  0.697E-02
  -5.878  0.477E-01  0.241E-01  0.132E-01  0.104E-01
  -5.778  0.587E-01  0.261E-01  0.170E-01  0.156E-01
  -5.678  0.725E-01  0.276E-01  0.219E-01  0.231E-01
  -5.578  0.885E-01  0.280E-01  0.274E-01  0.331E-01
  -5.478  0.105E+00  0.280E-01  0.327E-01  0.444E-01
  -5.378  0.118E+00  0.285E-01  0.362E-01  0.531E-01
  -5.278  0.121E+00  0.296E-01  0.364E-01  0.555E-01
  -5.178  0.115E+00  0.309E-01  0.332E-01  0.513E-01
  -5.078  0.105E+00  0.326E-01  0.288E-01  0.435E-01
  -4.978  0.975E-01  0.360E-01  0.260E-01  0.355E-01
  -4.878  0.974E-01  0.416E-01  0.266E-01  0.292E-01
  -4.778  0.103E+00  0.482E-01  0.294E-01  0.250E-01
  -4.678  0.106E+00  0.525E-01  0.310E-01  0.221E-01
  -4.578  0.101E+00  0.524E-01  0.291E-01  0.195E-01
  -4.478  0.879E-01  0.473E-01  0.235E-01  0.171E-01
  -4.378  0.709E-01  0.387E-01  0.167E-01  0.155E-01
  -4.278  0.555E-01  0.289E-01  0.113E-01  0.153E-01
  -4.178  0.451E-01  0.200E-01  0.843E-02  0.167E-01
  -4.078  0.399E-01  0.133E-01  0.795E-02  0.186E-01
  -3.978  0.380E-01  0.924E-02  0.903E-02  0.198E-01
  -3.878  0.377E-01  0.760E-02  0.107E-01  0.193E-01
  -3.778  0.383E-01  0.808E-02  0.124E-01  0.178E-01
  -3.678  0.400E-01  0.101E-01  0.135E-01  0.163E-01
  -3.578  0.426E-01  0.129E-01  0.141E-01  0.156E-01
  -3.478  0.455E-01  0.158E-01  0.141E-01  0.156E-01
  -3.378  0.480E-01  0.178E-01  0.140E-01  0.162E-01
  -3.278  0.504E-01  0.186E-01  0.144E-01  0.174E-01
  -3.178  0.534E-01  0.185E-01  0.159E-01  0.190E-01
  -3.078  0.575E-01  0.182E-01  0.187E-01  0.206E-01
  -2.978  0.620E-01  0.181E-01  0.222E-01  0.217E-01
  -2.878  0.656E-01  0.185E-01  0.256E-01  0.215E-01
  -2.778  0.677E-01  0.192E-01  0.285E-01  0.200E-01
  -2.678  0.689E-01  0.205E-01  0.308E-01  0.176E-01
  -2.578  0.695E-01  0.218E-01  0.326E-01  0.151E-01
  -2.478  0.694E-01  0.226E-01  0.334E-01  0.134E-01
  -2.378  0.675E-01  0.217E-01  0.332E-01  0.127E-01
  -2.278  0.645E-01  0.194E-01  0.322E-01  0.128E-01
  -2.178  0.621E-01  0.173E-01  0.309E-01  0.138E-01
  -2.078  0.621E-01  0.171E-01  0.294E-01  0.156E-01
  -1.978  0.632E-01  0.187E-01  0.269E-01  0.176E-01
  -1.878  0.612E-01  0.199E-01  0.230E-01  0.183E-01
  -1.778  0.526E-01  0.186E-01  0.175E-01  0.164E-01
  -1.678  0.387E-01  0.149E-01  0.116E-01  0.122E-01
  -1.578  0.244E-01  0.103E-01  0.665E-02  0.742E-02
  -1.478  0.140E-01  0.673E-02  0.354E-02  0.373E-02
  -1.378  0.831E-02  0.446E-02  0.206E-02  0.179E-02
  -1.278  0.633E-02  0.328E-02  0.172E-02  0.133E-02
  -1.178  0.695E-02  0.287E-02  0.221E-02  0.187E-02
  -1.078  0.937E-02  0.296E-02  0.336E-02  0.305E-02
  -0.978  0.128E-01  0.324E-02  0.499E-02  0.458E-02
  -0.878  0.166E-01  0.349E-02  0.694E-02  0.620E-02
  -0.778  0.202E-01  0.358E-02  0.906E-02  0.758E-02
  -0.678  0.226E-01  0.344E-02  0.110E-01  0.819E-02
  -0.578  0.227E-01  0.298E-02  0.121E-01  0.761E-02
  -0.478  0.198E-01  0.222E-02  0.116E-01  0.598E-02
  -0.378  0.145E-01  0.138E-02  0.921E-02  0.393E-02
  -0.278  0.879E-02  0.698E-03  0.594E-02  0.215E-02
  -0.178  0.429E-02  0.287E-03  0.303E-02  0.968E-03
  -0.078  0.166E-02  0.971E-04  0.121E-02  0.354E-03
   0.022  0.524E-03  0.411E-04  0.377E-03  0.106E-03
   0.122  0.229E-03  0.865E-04  0.103E-03  0.388E-04
   0.222  0.482E-03  0.319E-03  0.872E-04  0.761E-04
   0.322  0.154E-02  0.975E-03  0.287E-03  0.273E-03
   0.422  0.409E-02  0.236E-02  0.915E-03  0.816E-03
   0.522  0.887E-02  0.456E-02  0.238E-02  0.193E-02
   0.622  0.159E-01  0.720E-02  0.510E-02  0.363E-02
   0.722  0.242E-01  0.963E-02  0.905E-02  0.557E-02
   0.822  0.321E-01  0.114E-01  0.135E-01  0.720E-02
   0.922  0.381E-01  0.126E-01  0.171E-01  0.843E-02
   1.022  0.416E-01  0.132E-01  0.185E-01  0.983E-02
   1.122  0.429E-01  0.132E-01  0.177E-01  0.120E-01
   1.222  0.424E-01  0.124E-01  0.154E-01  0.146E-01
   1.322  0.403E-01  0.109E-01  0.130E-01  0.164E-01
   1.422  0.366E-01  0.914E-02  0.112E-01  0.163E-01
   1.522  0.326E-01  0.781E-02  0.105E-01  0.143E-01
   1.622  0.300E-01  0.720E-02  0.110E-01  0.118E-01
   1.722  0.293E-01  0.710E-02  0.124E-01  0.985E-02
   1.822  0.290E-01  0.692E-02  0.134E-01  0.868E-02
   1.922  0.268E-01  0.622E-02  0.129E-01  0.770E-02
   2.022  0.219E-01  0.498E-02  0.106E-01  0.637E-02
   2.122  0.154E-01  0.351E-02  0.723E-02  0.469E-02
   2.222  0.936E-02  0.221E-02  0.412E-02  0.304E-02
   2.322  0.493E-02  0.125E-02  0.195E-02  0.173E-02
   2.422  0.227E-02  0.631E-03  0.773E-03  0.869E-03
   2.522  0.911E-03  0.278E-03  0.258E-03  0.375E-03
   2.622  0.311E-03  0.103E-03  0.726E-04  0.135E-03
   2.722  0.883E-04  0.312E-04  0.172E-04  0.398E-04
   2.822  0.202E-04  0.749E-05  0.340E-05  0.932E-05
   2.922  0.367E-05  0.141E-05  0.548E-06  0.171E-05
   3.022  0.520E-06  0.204E-06  0.709E-07  0.245E-06
   3.122  0.572E-07  0.229E-07  0.727E-08  0.271E-07
