# E (eV)   ldos(E)   pdos(E)    pdos(E)    pdos(E)   
 -16.578  0.250E-06  0.306E-09  0.161E-06  0.888E-07
 -16.478  0.221E-05  0.261E-08  0.139E-05  0.822E-06
 -16.378  0.152E-04  0.174E-07  0.925E-05  0.592E-05
 -16.278  0.814E-04  0.941E-07  0.480E-04  0.333E-04
 -16.178  0.343E-03  0.449E-06  0.194E-03  0.148E-03
 -16.078  0.115E-02  0.216E-05  0.623E-03  0.523E-03
 -15.978  0.311E-02  0.111E-04  0.160E-02  0.149E-02
 -15.878  0.698E-02  0.552E-04  0.339E-02  0.353E-02
 -15.778  0.135E-01  0.233E-03  0.611E-02  0.712E-02
 -15.678  0.233E-01  0.788E-03  0.975E-02  0.127E-01
 -15.578  0.369E-01  0.208E-02  0.142E-01  0.206E-01
 -15.478  0.538E-01  0.429E-02  0.193E-01  0.302E-01
 -15.378  0.705E-01  0.692E-02  0.242E-01  0.394E-01
 -15.278  0.821E-01  0.885E-02  0.281E-01  0.452E-01
 -15.178  0.864E-01  0.926E-02  0.308E-01  0.464E-01
 -15.078  0.873E-01  0.860E-02  0.332E-01  0.454E-01
 -14.978  0.918E-01  0.887E-02  0.363E-01  0.466E-01
 -14.878  0.106E+00  0.133E-01  0.400E-01  0.529E-01
 -14.778  0.133E+00  0.259E-01  0.435E-01  0.636E-01
 -14.678  0.169E+00  0.482E-01  0.459E-01  0.750E-01
 -14.578  0.206E+00  0.763E-01  0.470E-01  0.830E-01
 -14.478  0.236E+00  0.101E+00  0.481E-01  0.873E-01
 -14.378  0.259E+00  0.113E+00  0.526E-01  0.928E-01
 -14.278  0.284E+00  0.117E+00  0.626E-01  0.105E+00
 -14.178  0.321E+00  0.121E+00  0.769E-01  0.123E+00
 -14.078  0.363E+00  0.133E+00  0.910E-01  0.139E+00
 -13.978  0.391E+00  0.148E+00  0.102E+00  0.141E+00
 -13.878  0.389E+00  0.154E+00  0.111E+00  0.124E+00
 -13.778  0.360E+00  0.147E+00  0.118E+00  0.954E-01
 -13.678  0.322E+00  0.130E+00  0.124E+00  0.686E-01
 -13.578  0.287E+00  0.108E+00  0.126E+00  0.523E-01
 -13.478  0.263E+00  0.856E-01  0.130E+00  0.476E-01
 -13.378  0.256E+00  0.664E-01  0.139E+00  0.502E-01
 -13.278  0.254E+00  0.540E-01  0.147E+00  0.535E-01
 -13.178  0.235E+00  0.471E-01  0.137E+00  0.505E-01
 -13.078  0.188E+00  0.432E-01  0.106E+00  0.391E-01
 -12.978  0.130E+00  0.419E-01  0.646E-01  0.240E-01
 -12.878  0.840E-01  0.416E-01  0.309E-01  0.115E-01
 -12.778  0.543E-01  0.383E-01  0.116E-01  0.441E-02
 -12.678  0.346E-01  0.297E-01  0.351E-02  0.140E-02
 -12.578  0.196E-01  0.183E-01  0.927E-03  0.407E-03
 -12.478  0.911E-02  0.874E-02  0.240E-03  0.121E-03
 -12.378  0.333E-02  0.323E-02  0.642E-04  0.362E-04
 -12.278  0.941E-03  0.914E-03  0.164E-04  0.978E-05
 -12.178  0.205E-03  0.199E-03  0.355E-05  0.216E-05
 -12.078  0.341E-04  0.332E-04  0.610E-06  0.374E-06
 -11.978  0.437E-05  0.424E-05  0.813E-07  0.499E-07
 -11.878  0.429E-06  0.415E-06  0.831E-08  0.510E-08
 -11.778  0.322E-07  0.312E-07  0.650E-09  0.398E-09
 -11.678  0.186E-08  0.179E-08  0.389E-10  0.238E-10
 -11.578  0.818E-10  0.790E-10  0.178E-11  0.108E-11
 -11.478  0.276E-11  0.266E-11  0.621E-13  0.377E-13
 -11.378  0.675E-13  0.648E-13  0.164E-14  0.998E-15
 -11.278  0.000E+00  0.000E+00  0.000E+00  0.000E+00
 -11.178  0.000E+00  0.000E+00  0.000E+00  0.000E+00
 -11.078  0.000E+00  0.000E+00  0.000E+00  0.000E+00
 -10.978  0.000E+00  0.000E+00  0.000E+00  0.000E+00
 -10.878  0.000E+00  0.000E+00  0.000E+00  0.000E+00
 -10.778  0.000E+00  0.000E+00  0.000E+00  0.000E+00
 -10.678  0.000E+00  0.000E+00  0.000E+00  0.000E+00
 -10.578  0.000E+00  0.000E+00  0.000E+00  0.000E+00
 -10.478  0.000E+00  0.000E+00  0.000E+00  0.000E+00
 -10.378  0.000E+00  0.000E+00  0.000E+00  0.000E+00
 -10.278  0.000E+00  0.000E+00  0.000E+00  0.000E+00
 -10.178  0.000E+00  0.000E+00  0.000E+00  0.000E+00
 -10.078  0.000E+00  0.000E+00  0.000E+00  0.000E+00
  -9.978  0.000E+00  0.000E+00  0.000E+00  0.000E+00
  -9.878  0.000E+00  0.000E+00  0.000E+00  0.000E+00
  -9.778  0.000E+00  0.000E+00  0.000E+00  0.000E+00
  -9.678  0.000E+00  0.000E+00  0.000E+00  0.000E+00
  -9.578  0.000E+00  0.000E+00  0.000E+00  0.000E+00
  -9.478  0.000E+00  0.000E+00  0.000E+00  0.000E+00
  -9.378  0.000E+00  0.000E+00  0.000E+00  0.000E+00
  -9.278  0.000E+00  0.000E+00  0.000E+00  0.000E+00
  -9.178  0.000E+00  0.000E+00  0.000E+00  0.000E+00
  -9.078  0.000E+00  0.000E+00  0.000E+00  0.000E+00
  -8.978  0.000E+00  0.000E+00  0.000E+00  0.000E+00
  -8.878  0.201E-13  0.132E-13  0.678E-14  0.179E-16
  -8.778  0.997E-12  0.642E-12  0.342E-12  0.137E-13
  -8.678  0.323E-10  0.207E-10  0.111E-10  0.513E-12
  -8.578  0.799E-09  0.510E-09  0.275E-09  0.147E-10
  -8.478  0.152E-07  0.964E-08  0.522E-08  0.321E-09
  -8.378  0.221E-06  0.140E-06  0.762E-07  0.537E-08
  -8.278  0.248E-05  0.156E-05  0.853E-06  0.691E-07
  -8.178  0.214E-04  0.133E-04  0.735E-05  0.683E-06
  -8.078  0.142E-03  0.878E-04  0.487E-04  0.522E-05
  -7.978  0.726E-03  0.447E-03  0.249E-03  0.310E-04
  -7.878  0.288E-02  0.176E-02  0.981E-03  0.144E-03
  -7.778  0.889E-02  0.536E-02  0.301E-02  0.526E-03
  -7.678  0.215E-01  0.128E-01  0.719E-02  0.155E-02
  -7.578  0.412E-01  0.238E-01  0.136E-01  0.371E-02
  -7.478  0.634E-01  0.353E-01  0.207E-01  0.740E-02
  -7.378  0.805E-01  0.419E-01  0.262E-01  0.125E-01
  -7.278  0.874E-01  0.406E-01  0.287E-01  0.181E-01
  -7.178  0.853E-01  0.334E-01  0.289E-01  0.230E-01
  -7.078  0.803E-01  0.255E-01  0.281E-01  0.267E-01
  -6.978  0.779E-01  0.211E-01  0.274E-01  0.294E-01
  -6.878  0.799E-01  0.208E-01  0.269E-01  0.321E-01
  -6.778  0.838E-01  0.232E-01  0.263E-01  0.342E-01
  -6.678  0.852E-01  0.260E-01  0.248E-01  0.343E-01
  -6.578  0.810E-01  0.277E-01  0.223E-01  0.310E-01
  -6.478  0.715E-01  0.276E-01  0.189E-01  0.250E-01
  -6.378  0.594E-01  0.259E-01  0.150E-01  0.186E-01
  -6.278  0.479E-01  0.230E-01  0.111E-01  0.137E-01
  -6.178  0.390E-01  0.200E-01  0.831E-02  0.107E-01
  -6.078  0.349E-01  0.181E-01  0.743E-02  0.934E-02
  -5.978  0.371E-01  0.186E-01  0.893E-02  0.955E-02
  -5.878  0.459E-01  0.217E-01  0.125E-01  0.117E-01
  -5.778  0.594E-01  0.261E-01  0.173E-01  0.160E-01
  -5.678  0.747E-01  0.297E-01  0.226E-01  0.224E-01
  -5.578  0.887E-01  0.307E-01  0.279E-01  0.301E-01
  -5.478  0.996E-01  0.296E-01  0.321E-01  0.379E-01
  -5.378  0.106E+00  0.278E-01  0.339E-01  0.444E-01
  -5.278  0.107E+00  0.270E-01  0.319E-01  0.477E-01
  -5.178  0.102E+00  0.281E-01  0.269E-01  0.467E-01
  -5.078  0.946E-01  0.316E-01  0.215E-01  0.414E-01
  -4.978  0.900E-01  0.376E-01  0.187E-01  0.338E-01
  -4.878  0.914E-01  0.449E-01  0.200E-01  0.266E-01
  -4.778  0.968E-01  0.512E-01  0.241E-01  0.215E-01
  -4.678  0.101E+00  0.545E-01  0.283E-01  0.179E-01
  -4.578  0.996E-01  0.541E-01  0.304E-01  0.151E-01
  -4.478  0.931E-01  0.504E-01  0.301E-01  0.126E-01
  -4.378  0.832E-01  0.441E-01  0.283E-01  0.108E-01
  -4.278  0.729E-01  0.368E-01  0.257E-01  0.104E-01
  -4.178  0.655E-01  0.305E-01  0.234E-01  0.117E-01
  -4.078  0.626E-01  0.261E-01  0.220E-01  0.145E-01
  -3.978  0.630E-01  0.234E-01  0.216E-01  0.180E-01
  -3.878  0.635E-01  0.219E-01  0.209E-01  0.206E-01
  -3.778  0.621E-01  0.212E-01  0.191E-01  0.218E-01
  -3.678  0.589E-01  0.209E-01  0.164E-01  0.216E-01
  -3.578  0.553E-01  0.206E-01  0.139E-01  0.208E-01
  -3.478  0.525E-01  0.200E-01  0.122E-01  0.203E-01
  -3.378  0.512E-01  0.192E-01  0.113E-01  0.206E-01
  -3.278  0.513E-01  0.182E-01  0.114E-01  0.217E-01
  -3.178  0.527E-01  0.171E-01  0.127E-01  0.229E-01
  -3.078  0.551E-01  0.163E-01  0.150E-01  0.237E-01
  -2.978  0.578E-01  0.159E-01  0.181E-01  0.239E-01
  -2.878  0.600E-01  0.159E-01  0.211E-01  0.230E-01
  -2.778  0.613E-01  0.164E-01  0.239E-01  0.211E-01
  -2.678  0.621E-01  0.172E-01  0.262E-01  0.186E-01
  -2.578  0.626E-01  0.182E-01  0.281E-01  0.163E-01
  -2.478  0.621E-01  0.187E-01  0.289E-01  0.145E-01
  -2.378  0.598E-01  0.181E-01  0.283E-01  0.134E-01
  -2.278  0.560E-01  0.163E-01  0.268E-01  0.129E-01
  -2.178  0.531E-01  0.145E-01  0.255E-01  0.131E-01
  -2.078  0.533E-01  0.142E-01  0.247E-01  0.143E-01
  -1.978  0.554E-01  0.154E-01  0.240E-01  0.160E-01
  -1.878  0.550E-01  0.162E-01  0.222E-01  0.166E-01
  -1.778  0.483E-01  0.150E-01  0.184E-01  0.149E-01
  -1.678  0.358E-01  0.116E-01  0.130E-01  0.112E-01
  -1.578  0.222E-01  0.743E-02  0.785E-02  0.690E-02
  -1.478  0.119E-01  0.408E-02  0.417E-02  0.362E-02
  -1.378  0.630E-02  0.215E-02  0.232E-02  0.183E-02
  -1.278  0.474E-02  0.145E-02  0.199E-02  0.130E-02
  -1.178  0.611E-02  0.156E-02  0.289E-02  0.166E-02
  -1.078  0.967E-02  0.216E-02  0.482E-02  0.269E-02
  -0.978  0.147E-01  0.295E-02  0.755E-02  0.425E-02
  -0.878  0.204E-01  0.370E-02  0.106E-01  0.607E-02
  -0.778  0.253E-01  0.421E-02  0.134E-01  0.765E-02
  -0.678  0.278E-01  0.426E-02  0.151E-01  0.842E-02
  -0.578  0.268E-01  0.371E-02  0.151E-01  0.807E-02
  -0.478  0.225E-01  0.271E-02  0.130E-01  0.674E-02
  -0.378  0.160E-01  0.162E-02  0.950E-02  0.485E-02
  -0.278  0.945E-02  0.787E-03  0.571E-02  0.294E-02
  -0.178  0.454E-02  0.310E-03  0.277E-02  0.146E-02
  -0.078  0.174E-02  0.987E-04  0.106E-02  0.583E-03
   0.022  0.533E-03  0.287E-04  0.320E-03  0.184E-03
   0.122  0.164E-03  0.247E-04  0.843E-04  0.545E-04
   0.222  0.204E-03  0.830E-04  0.643E-04  0.567E-04
   0.322  0.665E-03  0.274E-03  0.207E-03  0.185E-03
   0.422  0.195E-02  0.731E-03  0.664E-03  0.555E-03
   0.522  0.471E-02  0.160E-02  0.176E-02  0.136E-02
   0.622  0.950E-02  0.294E-02  0.385E-02  0.271E-02
   0.722  0.163E-01  0.467E-02  0.704E-02  0.454E-02
   0.822  0.240E-01  0.663E-02  0.108E-01  0.655E-02
   0.922  0.309E-01  0.848E-02  0.139E-01  0.846E-02
   1.022  0.351E-01  0.974E-02  0.153E-01  0.101E-01
   1.122  0.362E-01  0.101E-01  0.146E-01  0.114E-01
   1.222  0.347E-01  0.965E-02  0.129E-01  0.121E-01
   1.322  0.323E-01  0.889E-02  0.113E-01  0.121E-01
   1.422  0.308E-01  0.837E-02  0.109E-01  0.116E-01
   1.522  0.314E-01  0.839E-02  0.119E-01  0.112E-01
   1.622  0.343E-01  0.894E-02  0.142E-01  0.112E-01
   1.722  0.378E-01  0.974E-02  0.166E-01  0.115E-01
   1.822  0.390E-01  0.103E-01  0.176E-01  0.111E-01
   1.922  0.359E-01  0.100E-01  0.163E-01  0.956E-02
   2.022  0.286E-01  0.854E-02  0.130E-01  0.712E-02
   2.122  0.196E-01  0.616E-02  0.884E-02  0.455E-02
   2.222  0.114E-01  0.368E-02  0.520E-02  0.250E-02
   2.322  0.565E-02  0.180E-02  0.267E-02  0.118E-02
   2.422  0.241E-02  0.726E-03  0.120E-02  0.478E-03
   2.522  0.883E-03  0.244E-03  0.472E-03  0.166E-03
   2.622  0.277E-03  0.696E-04  0.159E-03  0.492E-04
   2.722  0.733E-04  0.168E-04  0.443E-04  0.122E-04
   2.822  0.159E-04  0.342E-05  0.100E-04  0.248E-05
   2.922  0.278E-05  0.574E-06  0.180E-05  0.409E-06
   3.022  0.384E-06  0.775E-07  0.253E-06  0.539E-07
   3.122  0.415E-07  0.829E-08  0.276E-07  0.558E-08
