# E (eV)   ldos(E)   pdos(E)    pdos(E)    pdos(E)    pdos(E)    pdos(E)    pdos(E)    pdos(E)   
 -16.578  0.174E-07  0.851E-10  0.241E-09  0.119E-09  0.107E-10  0.392E-10  0.188E-10  0.169E-07
 -16.478  0.147E-06  0.716E-09  0.207E-08  0.103E-08  0.899E-10  0.329E-09  0.158E-09  0.142E-06
 -16.378  0.949E-06  0.463E-08  0.137E-07  0.693E-08  0.584E-09  0.212E-08  0.102E-08  0.920E-06
 -16.278  0.474E-05  0.231E-07  0.712E-07  0.363E-07  0.293E-08  0.105E-07  0.508E-08  0.459E-05
 -16.178  0.183E-04  0.893E-07  0.290E-06  0.149E-06  0.114E-07  0.404E-07  0.196E-07  0.177E-04
 -16.078  0.554E-04  0.269E-06  0.941E-06  0.486E-06  0.344E-07  0.121E-06  0.584E-07  0.535E-04
 -15.978  0.132E-03  0.637E-06  0.248E-05  0.128E-05  0.820E-07  0.281E-06  0.137E-06  0.127E-03
 -15.878  0.250E-03  0.120E-05  0.548E-05  0.281E-05  0.156E-06  0.519E-06  0.253E-06  0.240E-03
 -15.778  0.388E-03  0.185E-05  0.104E-04  0.527E-05  0.244E-06  0.777E-06  0.379E-06  0.369E-03
 -15.678  0.508E-03  0.239E-05  0.174E-04  0.869E-05  0.322E-06  0.983E-06  0.476E-06  0.477E-03
 -15.578  0.575E-03  0.266E-05  0.258E-04  0.129E-04  0.380E-06  0.112E-05  0.533E-06  0.531E-03
 -15.478  0.576E-03  0.259E-05  0.340E-04  0.173E-04  0.420E-06  0.123E-05  0.567E-06  0.520E-03
 -15.378  0.520E-03  0.225E-05  0.400E-04  0.217E-04  0.457E-06  0.135E-05  0.602E-06  0.454E-03
 -15.278  0.440E-03  0.190E-05  0.428E-04  0.267E-04  0.523E-06  0.147E-05  0.653E-06  0.366E-03
 -15.178  0.389E-03  0.221E-05  0.435E-04  0.351E-04  0.692E-06  0.171E-05  0.753E-06  0.305E-03
 -15.078  0.411E-03  0.516E-05  0.451E-04  0.511E-04  0.116E-05  0.251E-05  0.948E-06  0.305E-03
 -14.978  0.519E-03  0.162E-04  0.511E-04  0.794E-04  0.250E-05  0.528E-05  0.125E-05  0.363E-03
 -14.878  0.710E-03  0.464E-04  0.655E-04  0.125E-03  0.618E-05  0.133E-04  0.161E-05  0.452E-03
 -14.778  0.980E-03  0.109E-03  0.919E-04  0.193E-03  0.151E-04  0.323E-04  0.189E-05  0.537E-03
 -14.678  0.132E-02  0.207E-03  0.131E-03  0.278E-03  0.331E-04  0.680E-04  0.201E-05  0.596E-03
 -14.578  0.166E-02  0.316E-03  0.175E-03  0.366E-03  0.638E-04  0.120E-03  0.197E-05  0.617E-03
 -14.478  0.193E-02  0.395E-03  0.210E-03  0.432E-03  0.111E-03  0.179E-03  0.192E-05  0.602E-03
 -14.378  0.210E-02  0.420E-03  0.224E-03  0.471E-03  0.182E-03  0.232E-03  0.207E-05  0.571E-03
 -14.278  0.224E-02  0.410E-03  0.216E-03  0.493E-03  0.301E-03  0.278E-03  0.251E-05  0.541E-03
 -14.178  0.247E-02  0.410E-03  0.197E-03  0.505E-03  0.506E-03  0.339E-03  0.319E-05  0.512E-03
 -14.078  0.287E-02  0.449E-03  0.187E-03  0.497E-03  0.826E-03  0.443E-03  0.387E-05  0.463E-03
 -13.978  0.341E-02  0.509E-03  0.214E-03  0.454E-03  0.125E-02  0.595E-03  0.426E-05  0.382E-03
 -13.878  0.398E-02  0.550E-03  0.301E-03  0.382E-03  0.170E-02  0.759E-03  0.418E-05  0.281E-03
 -13.778  0.444E-02  0.549E-03  0.443E-03  0.309E-03  0.207E-02  0.884E-03  0.378E-05  0.185E-03
 -13.678  0.470E-02  0.503E-03  0.599E-03  0.268E-03  0.224E-02  0.966E-03  0.339E-05  0.120E-03
 -13.578  0.474E-02  0.421E-03  0.725E-03  0.281E-03  0.213E-02  0.108E-02  0.329E-05  0.991E-04
 -13.478  0.465E-02  0.314E-03  0.820E-03  0.355E-03  0.174E-02  0.130E-02  0.357E-05  0.118E-03
 -13.378  0.451E-02  0.204E-03  0.905E-03  0.462E-03  0.121E-02  0.156E-02  0.412E-05  0.155E-03
 -13.278  0.423E-02  0.120E-03  0.948E-03  0.534E-03  0.757E-03  0.168E-02  0.452E-05  0.179E-03
 -13.178  0.375E-02  0.794E-04  0.876E-03  0.506E-03  0.514E-03  0.160E-02  0.429E-05  0.169E-03
 -13.078  0.328E-02  0.853E-04  0.669E-03  0.382E-03  0.535E-03  0.148E-02  0.339E-05  0.126E-03
 -12.978  0.317E-02  0.125E-03  0.409E-03  0.226E-03  0.766E-03  0.156E-02  0.228E-05  0.754E-04
 -12.878  0.333E-02  0.170E-03  0.199E-03  0.105E-03  0.104E-02  0.178E-02  0.142E-05  0.368E-04
 -12.778  0.330E-02  0.184E-03  0.797E-04  0.391E-04  0.113E-02  0.185E-02  0.912E-06  0.157E-04
 -12.678  0.272E-02  0.155E-03  0.282E-04  0.121E-04  0.958E-03  0.156E-02  0.596E-06  0.652E-05
 -12.578  0.176E-02  0.100E-03  0.988E-05  0.348E-05  0.623E-03  0.102E-02  0.352E-06  0.281E-05
 -12.478  0.882E-03  0.498E-04  0.353E-05  0.103E-05  0.311E-03  0.516E-03  0.171E-06  0.117E-05
 -12.378  0.339E-03  0.190E-04  0.117E-05  0.307E-06  0.119E-03  0.200E-03  0.650E-07  0.417E-06
 -12.278  0.100E-03  0.553E-05  0.328E-06  0.825E-07  0.348E-04  0.591E-04  0.191E-07  0.119E-06
 -12.178  0.226E-04  0.124E-05  0.724E-07  0.181E-07  0.781E-05  0.134E-04  0.431E-08  0.265E-07
 -12.078  0.390E-05  0.212E-06  0.124E-07  0.312E-08  0.134E-05  0.233E-05  0.744E-09  0.454E-08
 -11.978  0.516E-06  0.278E-07  0.163E-08  0.415E-09  0.176E-06  0.309E-06  0.985E-10  0.596E-09
 -11.878  0.522E-07  0.280E-08  0.165E-09  0.422E-10  0.177E-07  0.314E-07  0.997E-11  0.600E-10
 -11.778  0.404E-08  0.215E-09  0.127E-10  0.329E-11  0.137E-08  0.244E-08  0.772E-12  0.463E-11
 -11.678  0.239E-09  0.127E-10  0.754E-12  0.196E-12  0.804E-10  0.145E-09  0.457E-13  0.273E-12
 -11.578  0.108E-10  0.571E-12  0.341E-13  0.890E-14  0.362E-11  0.659E-11  0.207E-14  0.123E-13
 -11.478  0.375E-12  0.197E-13  0.118E-14  0.310E-15  0.125E-12  0.229E-12  0.717E-16  0.425E-15
 -11.378  0.982E-14  0.509E-15  0.308E-16  0.814E-17  0.325E-14  0.601E-14  0.188E-17  0.110E-16
 -11.278  0.000E+00  0.000E+00  0.000E+00  0.000E+00  0.000E+00  0.000E+00  0.000E+00  0.000E+00
 -11.178  0.000E+00  0.000E+00  0.000E+00  0.000E+00  0.000E+00  0.000E+00  0.000E+00  0.000E+00
 -11.078  0.000E+00  0.000E+00  0.000E+00  0.000E+00  0.000E+00  0.000E+00  0.000E+00  0.000E+00
 -10.978  0.000E+00  0.000E+00  0.000E+00  0.000E+00  0.000E+00  0.000E+00  0.000E+00  0.000E+00
 -10.878  0.000E+00  0.000E+00  0.000E+00  0.000E+00  0.000E+00  0.000E+00  0.000E+00  0.000E+00
 -10.778  0.000E+00  0.000E+00  0.000E+00  0.000E+00  0.000E+00  0.000E+00  0.000E+00  0.000E+00
 -10.678  0.000E+00  0.000E+00  0.000E+00  0.000E+00  0.000E+00  0.000E+00  0.000E+00  0.000E+00
 -10.578  0.000E+00  0.000E+00  0.000E+00  0.000E+00  0.000E+00  0.000E+00  0.000E+00  0.000E+00
 -10.478  0.000E+00  0.000E+00  0.000E+00  0.000E+00  0.000E+00  0.000E+00  0.000E+00  0.000E+00
 -10.378  0.000E+00  0.000E+00  0.000E+00  0.000E+00  0.000E+00  0.000E+00  0.000E+00  0.000E+00
 -10.278  0.000E+00  0.000E+00  0.000E+00  0.000E+00  0.000E+00  0.000E+00  0.000E+00  0.000E+00
 -10.178  0.000E+00  0.000E+00  0.000E+00  0.000E+00  0.000E+00  0.000E+00  0.000E+00  0.000E+00
 -10.078  0.000E+00  0.000E+00  0.000E+00  0.000E+00  0.000E+00  0.000E+00  0.000E+00  0.000E+00
  -9.978  0.000E+00  0.000E+00  0.000E+00  0.000E+00  0.000E+00  0.000E+00  0.000E+00  0.000E+00
  -9.878  0.000E+00  0.000E+00  0.000E+00  0.000E+00  0.000E+00  0.000E+00  0.000E+00  0.000E+00
  -9.778  0.000E+00  0.000E+00  0.000E+00  0.000E+00  0.000E+00  0.000E+00  0.000E+00  0.000E+00
  -9.678  0.000E+00  0.000E+00  0.000E+00  0.000E+00  0.000E+00  0.000E+00  0.000E+00  0.000E+00
  -9.578  0.000E+00  0.000E+00  0.000E+00  0.000E+00  0.000E+00  0.000E+00  0.000E+00  0.000E+00
  -9.478  0.000E+00  0.000E+00  0.000E+00  0.000E+00  0.000E+00  0.000E+00  0.000E+00  0.000E+00
  -9.378  0.000E+00  0.000E+00  0.000E+00  0.000E+00  0.000E+00  0.000E+00  0.000E+00  0.000E+00
  -9.278  0.000E+00  0.000E+00  0.000E+00  0.000E+00  0.000E+00  0.000E+00  0.000E+00  0.000E+00
  -9.178  0.000E+00  0.000E+00  0.000E+00  0.000E+00  0.000E+00  0.000E+00  0.000E+00  0.000E+00
  -9.078  0.000E+00  0.000E+00  0.000E+00  0.000E+00  0.000E+00  0.000E+00  0.000E+00  0.000E+00
  -8.978  0.000E+00  0.000E+00  0.000E+00  0.000E+00  0.000E+00  0.000E+00  0.000E+00  0.000E+00
  -8.878  0.675E-16  0.522E-20  0.263E-16  0.245E-16  0.423E-19  0.392E-19  0.435E-17  0.122E-16
  -8.778  0.369E-14  0.159E-17  0.146E-14  0.134E-14  0.224E-17  0.226E-17  0.261E-15  0.627E-15
  -8.678  0.121E-12  0.582E-16  0.480E-13  0.439E-13  0.732E-16  0.750E-16  0.866E-14  0.204E-13
  -8.578  0.305E-11  0.164E-14  0.121E-11  0.111E-11  0.183E-14  0.191E-14  0.220E-12  0.511E-12
  -8.478  0.590E-10  0.353E-13  0.233E-10  0.215E-10  0.353E-13  0.373E-13  0.429E-11  0.981E-11
  -8.378  0.877E-09  0.583E-12  0.346E-09  0.320E-09  0.521E-12  0.562E-12  0.644E-10  0.145E-09
  -8.278  0.100E-07  0.742E-11  0.395E-08  0.368E-08  0.594E-11  0.653E-11  0.743E-09  0.165E-08
  -8.178  0.888E-07  0.728E-10  0.347E-07  0.327E-07  0.522E-10  0.587E-10  0.661E-08  0.146E-07
  -8.078  0.607E-06  0.553E-09  0.235E-06  0.225E-06  0.356E-09  0.410E-09  0.454E-07  0.101E-06
  -7.978  0.322E-05  0.328E-08  0.123E-05  0.120E-05  0.189E-08  0.224E-08  0.241E-06  0.547E-06
  -7.878  0.134E-04  0.153E-07  0.496E-05  0.500E-05  0.803E-08  0.978E-08  0.100E-05  0.237E-05
  -7.778  0.437E-04  0.570E-07  0.156E-04  0.164E-04  0.284E-07  0.356E-07  0.328E-05  0.830E-05
  -7.678  0.114E-03  0.173E-06  0.383E-04  0.429E-04  0.927E-07  0.118E-06  0.863E-05  0.241E-04
  -7.578  0.244E-03  0.438E-06  0.751E-04  0.905E-04  0.315E-06  0.404E-06  0.188E-04  0.589E-04
  -7.478  0.440E-03  0.941E-06  0.121E-03  0.157E-03  0.114E-05  0.148E-05  0.350E-04  0.123E-03
  -7.378  0.690E-03  0.176E-05  0.166E-03  0.230E-03  0.393E-05  0.529E-05  0.579E-04  0.224E-03
  -7.278  0.978E-03  0.290E-05  0.212E-03  0.291E-03  0.118E-04  0.169E-04  0.870E-04  0.356E-03
  -7.178  0.130E-02  0.428E-05  0.265E-03  0.330E-03  0.296E-04  0.464E-04  0.120E-03  0.503E-03
  -7.078  0.165E-02  0.564E-05  0.329E-03  0.352E-03  0.617E-04  0.108E-03  0.152E-03  0.637E-03
  -6.978  0.202E-02  0.665E-05  0.398E-03  0.379E-03  0.109E-03  0.213E-03  0.179E-03  0.739E-03
  -6.878  0.241E-02  0.703E-05  0.451E-03  0.433E-03  0.164E-03  0.356E-03  0.199E-03  0.801E-03
  -6.778  0.275E-02  0.681E-05  0.466E-03  0.511E-03  0.218E-03  0.502E-03  0.207E-03  0.836E-03
  -6.678  0.294E-02  0.639E-05  0.430E-03  0.579E-03  0.266E-03  0.602E-03  0.202E-03  0.859E-03
  -6.578  0.297E-02  0.639E-05  0.354E-03  0.601E-03  0.311E-03  0.637E-03  0.188E-03  0.874E-03
  -6.478  0.288E-02  0.758E-05  0.269E-03  0.562E-03  0.367E-03  0.636E-03  0.171E-03  0.865E-03
  -6.378  0.274E-02  0.107E-04  0.199E-03  0.479E-03  0.438E-03  0.651E-03  0.160E-03  0.799E-03
  -6.278  0.260E-02  0.168E-04  0.150E-03  0.384E-03  0.519E-03  0.719E-03  0.155E-03  0.660E-03
  -6.178  0.252E-02  0.272E-04  0.120E-03  0.302E-03  0.606E-03  0.846E-03  0.152E-03  0.469E-03
  -6.078  0.256E-02  0.440E-04  0.116E-03  0.254E-03  0.710E-03  0.101E-02  0.147E-03  0.283E-03
  -5.978  0.276E-02  0.680E-04  0.149E-03  0.263E-03  0.837E-03  0.114E-02  0.139E-03  0.158E-03
  -5.878  0.309E-02  0.962E-04  0.223E-03  0.359E-03  0.974E-03  0.120E-02  0.131E-03  0.111E-03
  -5.778  0.349E-02  0.122E-03  0.327E-03  0.557E-03  0.109E-02  0.113E-02  0.129E-03  0.133E-03
  -5.678  0.390E-02  0.139E-03  0.439E-03  0.831E-03  0.116E-02  0.993E-03  0.139E-03  0.202E-03
  -5.578  0.427E-02  0.150E-03  0.538E-03  0.110E-02  0.119E-02  0.854E-03  0.158E-03  0.289E-03
  -5.478  0.456E-02  0.159E-03  0.618E-03  0.126E-02  0.121E-02  0.768E-03  0.187E-03  0.360E-03
  -5.378  0.471E-02  0.172E-03  0.673E-03  0.128E-02  0.123E-02  0.738E-03  0.227E-03  0.387E-03
  -5.278  0.470E-02  0.197E-03  0.690E-03  0.119E-02  0.125E-02  0.742E-03  0.277E-03  0.365E-03
  -5.178  0.462E-02  0.243E-03  0.666E-03  0.103E-02  0.125E-02  0.780E-03  0.327E-03  0.316E-03
  -5.078  0.458E-02  0.319E-03  0.636E-03  0.865E-03  0.126E-02  0.869E-03  0.362E-03  0.269E-03
  -4.978  0.474E-02  0.428E-03  0.665E-03  0.723E-03  0.129E-02  0.101E-02  0.374E-03  0.244E-03
  -4.878  0.512E-02  0.554E-03  0.785E-03  0.627E-03  0.138E-02  0.117E-02  0.368E-03  0.240E-03
  -4.778  0.561E-02  0.662E-03  0.943E-03  0.573E-03  0.153E-02  0.131E-02  0.348E-03  0.243E-03
  -4.678  0.600E-02  0.713E-03  0.103E-02  0.530E-03  0.174E-02  0.144E-02  0.315E-03  0.239E-03
  -4.578  0.617E-02  0.690E-03  0.978E-03  0.474E-03  0.195E-02  0.159E-02  0.269E-03  0.222E-03
  -4.478  0.606E-02  0.620E-03  0.816E-03  0.413E-03  0.203E-02  0.176E-02  0.222E-03  0.199E-03
  -4.378  0.573E-02  0.557E-03  0.643E-03  0.371E-03  0.188E-02  0.191E-02  0.191E-03  0.180E-03
  -4.278  0.533E-02  0.538E-03  0.550E-03  0.362E-03  0.153E-02  0.198E-02  0.195E-03  0.171E-03
  -4.178  0.499E-02  0.552E-03  0.566E-03  0.390E-03  0.112E-02  0.193E-02  0.251E-03  0.172E-03
  -4.078  0.478E-02  0.559E-03  0.664E-03  0.450E-03  0.782E-03  0.177E-02  0.375E-03  0.181E-03
  -3.978  0.473E-02  0.543E-03  0.780E-03  0.532E-03  0.592E-03  0.153E-02  0.567E-03  0.188E-03
  -3.878  0.491E-02  0.553E-03  0.853E-03  0.633E-03  0.563E-03  0.132E-02  0.804E-03  0.184E-03
  -3.778  0.540E-02  0.680E-03  0.850E-03  0.747E-03  0.689E-03  0.123E-02  0.103E-02  0.170E-03
  -3.678  0.630E-02  0.991E-03  0.782E-03  0.867E-03  0.969E-03  0.134E-02  0.119E-02  0.152E-03
  -3.578  0.758E-02  0.144E-02  0.705E-03  0.983E-03  0.139E-02  0.164E-02  0.127E-02  0.138E-03
  -3.478  0.901E-02  0.187E-02  0.689E-03  0.109E-02  0.191E-02  0.201E-02  0.130E-02  0.132E-03
  -3.378  0.103E-01  0.208E-02  0.797E-03  0.120E-02  0.243E-02  0.225E-02  0.136E-02  0.136E-03
  -3.278  0.112E-01  0.202E-02  0.107E-02  0.131E-02  0.287E-02  0.226E-02  0.152E-02  0.150E-03
  -3.178  0.119E-01  0.182E-02  0.149E-02  0.143E-02  0.314E-02  0.209E-02  0.179E-02  0.174E-03
  -3.078  0.126E-01  0.166E-02  0.197E-02  0.154E-02  0.321E-02  0.191E-02  0.211E-02  0.207E-03
  -2.978  0.131E-01  0.164E-02  0.235E-02  0.161E-02  0.305E-02  0.186E-02  0.238E-02  0.244E-03
  -2.878  0.133E-01  0.176E-02  0.249E-02  0.163E-02  0.272E-02  0.195E-02  0.251E-02  0.284E-03
  -2.778  0.132E-01  0.196E-02  0.238E-02  0.160E-02  0.229E-02  0.215E-02  0.247E-02  0.338E-03
  -2.678  0.128E-01  0.223E-02  0.211E-02  0.158E-02  0.189E-02  0.234E-02  0.227E-02  0.418E-03
  -2.578  0.124E-01  0.249E-02  0.183E-02  0.163E-02  0.158E-02  0.237E-02  0.199E-02  0.530E-03
  -2.478  0.119E-01  0.257E-02  0.160E-02  0.179E-02  0.136E-02  0.215E-02  0.174E-02  0.658E-03
  -2.378  0.112E-01  0.238E-02  0.144E-02  0.208E-02  0.118E-02  0.172E-02  0.158E-02  0.766E-03
  -2.278  0.103E-01  0.192E-02  0.135E-02  0.250E-02  0.979E-03  0.122E-02  0.153E-02  0.828E-03
  -2.178  0.971E-02  0.138E-02  0.140E-02  0.298E-02  0.769E-03  0.778E-03  0.155E-02  0.848E-03
  -2.078  0.953E-02  0.936E-03  0.167E-02  0.340E-02  0.590E-03  0.491E-03  0.160E-02  0.848E-03
  -1.978  0.962E-02  0.647E-03  0.212E-02  0.357E-02  0.464E-03  0.358E-03  0.163E-02  0.835E-03
  -1.878  0.940E-02  0.474E-03  0.255E-02  0.331E-02  0.385E-03  0.342E-03  0.156E-02  0.779E-03
  -1.778  0.835E-02  0.367E-03  0.263E-02  0.262E-02  0.345E-03  0.415E-03  0.132E-02  0.648E-03
  -1.678  0.658E-02  0.304E-03  0.222E-02  0.173E-02  0.346E-03  0.558E-03  0.956E-03  0.456E-03
  -1.578  0.471E-02  0.276E-03  0.153E-02  0.946E-03  0.383E-03  0.726E-03  0.588E-03  0.264E-03
  -1.478  0.333E-02  0.279E-03  0.882E-03  0.426E-03  0.435E-03  0.846E-03  0.335E-03  0.127E-03
  -1.378  0.264E-02  0.314E-03  0.495E-03  0.164E-03  0.493E-03  0.883E-03  0.235E-03  0.572E-04
  -1.278  0.266E-02  0.400E-03  0.383E-03  0.662E-04  0.585E-03  0.896E-03  0.287E-03  0.379E-04
  -1.178  0.338E-02  0.552E-03  0.488E-03  0.506E-04  0.744E-03  0.991E-03  0.502E-03  0.503E-04
  -1.078  0.473E-02  0.750E-03  0.766E-03  0.762E-04  0.952E-03  0.119E-02  0.902E-03  0.853E-04
  -0.978  0.637E-02  0.917E-03  0.120E-02  0.127E-03  0.112E-02  0.140E-02  0.147E-02  0.141E-03
  -0.878  0.783E-02  0.967E-03  0.174E-02  0.191E-03  0.115E-02  0.146E-02  0.210E-02  0.213E-03
  -0.778  0.869E-02  0.879E-03  0.233E-02  0.259E-03  0.104E-02  0.133E-02  0.257E-02  0.288E-03
  -0.678  0.873E-02  0.709E-03  0.279E-02  0.317E-03  0.838E-03  0.108E-02  0.266E-02  0.337E-03
  -0.578  0.789E-02  0.524E-03  0.297E-02  0.348E-03  0.616E-03  0.784E-03  0.231E-02  0.335E-03
  -0.478  0.631E-02  0.357E-03  0.273E-02  0.334E-03  0.411E-03  0.518E-03  0.168E-02  0.279E-03
  -0.378  0.436E-02  0.220E-03  0.211E-02  0.268E-03  0.244E-03  0.304E-03  0.102E-02  0.195E-03
  -0.278  0.254E-02  0.118E-03  0.133E-02  0.174E-03  0.124E-03  0.155E-03  0.522E-03  0.112E-03
  -0.178  0.121E-02  0.530E-04  0.673E-03  0.894E-04  0.534E-04  0.665E-04  0.221E-03  0.526E-04
  -0.078  0.463E-03  0.194E-04  0.268E-03  0.358E-04  0.188E-04  0.235E-04  0.773E-04  0.199E-04
   0.022  0.144E-03  0.567E-05  0.842E-04  0.115E-04  0.535E-05  0.671E-05  0.248E-04  0.614E-05
   0.122  0.606E-04  0.133E-05  0.268E-04  0.532E-05  0.128E-05  0.154E-05  0.219E-04  0.248E-05
   0.222  0.129E-03  0.344E-06  0.368E-04  0.144E-04  0.574E-06  0.367E-06  0.714E-04  0.476E-05
   0.322  0.428E-03  0.418E-06  0.125E-03  0.585E-04  0.143E-05  0.445E-06  0.227E-03  0.147E-04
   0.422  0.119E-02  0.110E-05  0.369E-03  0.201E-03  0.432E-05  0.140E-05  0.573E-03  0.380E-04
   0.522  0.268E-02  0.261E-05  0.870E-03  0.572E-03  0.108E-04  0.396E-05  0.114E-02  0.788E-04
   0.622  0.502E-02  0.538E-05  0.167E-02  0.135E-02  0.229E-04  0.960E-05  0.184E-02  0.134E-03
   0.722  0.802E-02  0.102E-04  0.267E-02  0.263E-02  0.434E-04  0.211E-04  0.245E-02  0.191E-03
   0.822  0.112E-01  0.190E-04  0.371E-02  0.428E-02  0.802E-04  0.468E-04  0.282E-02  0.240E-03
   0.922  0.140E-01  0.374E-04  0.464E-02  0.583E-02  0.157E-03  0.111E-03  0.294E-02  0.283E-03
   1.022  0.159E-01  0.767E-04  0.532E-02  0.675E-02  0.321E-03  0.272E-03  0.286E-02  0.330E-03
   1.122  0.168E-01  0.151E-03  0.557E-02  0.682E-02  0.626E-03  0.612E-03  0.263E-02  0.381E-03
   1.222  0.167E-01  0.268E-03  0.529E-02  0.621E-02  0.110E-02  0.118E-02  0.228E-02  0.417E-03
   1.322  0.162E-01  0.416E-03  0.457E-02  0.532E-02  0.171E-02  0.193E-02  0.183E-02  0.417E-03
   1.422  0.155E-01  0.564E-03  0.369E-02  0.446E-02  0.243E-02  0.269E-02  0.133E-02  0.382E-03
   1.522  0.151E-01  0.682E-03  0.291E-02  0.378E-02  0.317E-02  0.330E-02  0.887E-03  0.336E-03
   1.622  0.148E-01  0.759E-03  0.239E-02  0.331E-02  0.381E-02  0.366E-02  0.573E-03  0.305E-03
   1.722  0.144E-01  0.807E-03  0.210E-02  0.297E-02  0.414E-02  0.374E-02  0.392E-03  0.286E-03
   1.822  0.135E-01  0.843E-03  0.191E-02  0.263E-02  0.400E-02  0.355E-02  0.296E-03  0.261E-03
   1.922  0.117E-01  0.865E-03  0.168E-02  0.217E-02  0.345E-02  0.313E-02  0.230E-03  0.217E-03
   2.022  0.937E-02  0.844E-03  0.135E-02  0.160E-02  0.268E-02  0.257E-02  0.165E-03  0.160E-03
   2.122  0.680E-02  0.746E-03  0.973E-03  0.101E-02  0.191E-02  0.194E-02  0.105E-03  0.106E-03
   2.222  0.445E-02  0.575E-03  0.623E-03  0.537E-03  0.127E-02  0.133E-02  0.563E-04  0.643E-04
   2.322  0.261E-02  0.375E-03  0.355E-03  0.234E-03  0.769E-03  0.812E-03  0.252E-04  0.358E-04
   2.422  0.133E-02  0.203E-03  0.178E-03  0.830E-04  0.414E-03  0.427E-03  0.933E-05  0.181E-04
   2.522  0.579E-03  0.894E-04  0.772E-04  0.238E-04  0.190E-03  0.188E-03  0.282E-05  0.793E-05
   2.622  0.208E-03  0.316E-04  0.280E-04  0.555E-05  0.713E-04  0.677E-04  0.699E-06  0.291E-05
   2.722  0.601E-04  0.891E-05  0.827E-05  0.106E-05  0.214E-04  0.195E-04  0.142E-06  0.865E-06
   2.822  0.138E-04  0.198E-05  0.194E-05  0.169E-06  0.506E-05  0.442E-05  0.239E-07  0.204E-06
   2.922  0.248E-05  0.343E-06  0.358E-06  0.226E-07  0.932E-06  0.783E-06  0.329E-08  0.375E-07
   3.022  0.346E-06  0.464E-07  0.513E-07  0.255E-08  0.133E-06  0.108E-06  0.372E-09  0.536E-08
   3.122  0.374E-07  0.487E-08  0.569E-08  0.239E-09  0.146E-07  0.115E-07  0.340E-10  0.591E-09
