# E (eV)   ldos(E)   pdos(E)    pdos(E)    pdos(E)    pdos(E)    pdos(E)    pdos(E)    pdos(E)   
 -16.578  0.172E-07  0.963E-10  0.262E-09  0.107E-09  0.141E-10  0.335E-10  0.184E-10  0.167E-07
 -16.478  0.145E-06  0.809E-09  0.224E-08  0.952E-09  0.119E-09  0.281E-09  0.154E-09  0.140E-06
 -16.378  0.936E-06  0.523E-08  0.148E-07  0.663E-08  0.766E-09  0.181E-08  0.990E-09  0.905E-06
 -16.278  0.466E-05  0.260E-07  0.761E-07  0.362E-07  0.381E-08  0.901E-08  0.489E-08  0.451E-05
 -16.178  0.180E-04  0.100E-06  0.306E-06  0.157E-06  0.147E-07  0.346E-07  0.186E-07  0.174E-04
 -16.078  0.541E-04  0.301E-06  0.978E-06  0.546E-06  0.439E-07  0.103E-06  0.549E-07  0.521E-04
 -15.978  0.128E-03  0.709E-06  0.252E-05  0.155E-05  0.103E-06  0.240E-06  0.126E-06  0.123E-03
 -15.878  0.241E-03  0.133E-05  0.535E-05  0.370E-05  0.191E-06  0.443E-06  0.226E-06  0.230E-03
 -15.778  0.371E-03  0.203E-05  0.965E-05  0.755E-05  0.290E-06  0.662E-06  0.326E-06  0.350E-03
 -15.678  0.481E-03  0.260E-05  0.151E-04  0.134E-04  0.378E-06  0.837E-06  0.396E-06  0.449E-03
 -15.578  0.547E-03  0.291E-05  0.207E-04  0.207E-04  0.457E-06  0.962E-06  0.440E-06  0.501E-03
 -15.478  0.563E-03  0.293E-05  0.250E-04  0.280E-04  0.548E-06  0.109E-05  0.499E-06  0.505E-03
 -15.378  0.540E-03  0.274E-05  0.274E-04  0.336E-04  0.655E-06  0.127E-05  0.605E-06  0.474E-03
 -15.278  0.500E-03  0.257E-05  0.287E-04  0.372E-04  0.773E-06  0.151E-05  0.756E-06  0.428E-03
 -15.178  0.474E-03  0.299E-05  0.313E-04  0.413E-04  0.958E-06  0.187E-05  0.956E-06  0.394E-03
 -15.078  0.491E-03  0.587E-05  0.375E-04  0.513E-04  0.152E-05  0.273E-05  0.123E-05  0.391E-03
 -14.978  0.566E-03  0.164E-04  0.490E-04  0.731E-04  0.339E-05  0.525E-05  0.157E-05  0.417E-03
 -14.878  0.709E-03  0.453E-04  0.675E-04  0.114E-03  0.887E-05  0.123E-04  0.193E-05  0.459E-03
 -14.778  0.933E-03  0.105E-03  0.954E-04  0.179E-03  0.222E-04  0.287E-04  0.219E-05  0.500E-03
 -14.678  0.124E-02  0.199E-03  0.133E-03  0.270E-03  0.486E-04  0.588E-04  0.230E-05  0.531E-03
 -14.578  0.159E-02  0.307E-03  0.173E-03  0.368E-03  0.900E-04  0.102E-03  0.233E-05  0.544E-03
 -14.478  0.188E-02  0.394E-03  0.207E-03  0.442E-03  0.144E-03  0.151E-03  0.246E-05  0.539E-03
 -14.378  0.207E-02  0.436E-03  0.230E-03  0.469E-03  0.209E-03  0.198E-03  0.283E-05  0.523E-03
 -14.278  0.221E-02  0.444E-03  0.250E-03  0.450E-03  0.307E-03  0.248E-03  0.344E-05  0.512E-03
 -14.178  0.244E-02  0.447E-03  0.277E-03  0.402E-03  0.486E-03  0.319E-03  0.412E-05  0.503E-03
 -14.078  0.284E-02  0.463E-03  0.312E-03  0.351E-03  0.797E-03  0.433E-03  0.458E-05  0.478E-03
 -13.978  0.340E-02  0.489E-03  0.349E-03  0.318E-03  0.123E-02  0.593E-03  0.458E-05  0.417E-03
 -13.878  0.401E-02  0.506E-03  0.381E-03  0.328E-03  0.168E-02  0.783E-03  0.413E-05  0.321E-03
 -13.778  0.449E-02  0.502E-03  0.408E-03  0.386E-03  0.200E-02  0.976E-03  0.350E-05  0.217E-03
 -13.678  0.475E-02  0.474E-03  0.447E-03  0.465E-03  0.208E-02  0.115E-02  0.303E-05  0.138E-03
 -13.578  0.479E-02  0.416E-03  0.530E-03  0.515E-03  0.196E-02  0.126E-02  0.290E-05  0.106E-03
 -13.478  0.471E-02  0.326E-03  0.688E-03  0.515E-03  0.179E-02  0.127E-02  0.314E-05  0.119E-03
 -13.378  0.458E-02  0.222E-03  0.893E-03  0.485E-03  0.163E-02  0.119E-02  0.359E-05  0.152E-03
 -13.278  0.429E-02  0.134E-03  0.103E-02  0.443E-03  0.145E-02  0.106E-02  0.390E-05  0.173E-03
 -13.178  0.379E-02  0.883E-04  0.984E-03  0.378E-03  0.119E-02  0.993E-03  0.369E-05  0.159E-03
 -13.078  0.331E-02  0.910E-04  0.748E-03  0.279E-03  0.898E-03  0.117E-02  0.293E-05  0.117E-03
 -12.978  0.317E-02  0.129E-03  0.448E-03  0.169E-03  0.712E-03  0.164E-02  0.200E-05  0.681E-04
 -12.878  0.331E-02  0.172E-03  0.210E-03  0.815E-04  0.648E-03  0.216E-02  0.130E-05  0.323E-04
 -12.778  0.324E-02  0.185E-03  0.788E-04  0.321E-04  0.605E-03  0.233E-02  0.872E-06  0.133E-04
 -12.678  0.264E-02  0.153E-03  0.246E-04  0.109E-04  0.489E-03  0.196E-02  0.588E-06  0.524E-05
 -12.578  0.169E-02  0.976E-04  0.708E-05  0.360E-05  0.315E-03  0.127E-02  0.352E-06  0.214E-05
 -12.478  0.840E-03  0.478E-04  0.206E-05  0.121E-05  0.157E-03  0.631E-03  0.171E-06  0.856E-06
 -12.378  0.320E-03  0.179E-04  0.602E-06  0.385E-06  0.602E-04  0.240E-03  0.650E-07  0.297E-06
 -12.278  0.934E-04  0.516E-05  0.158E-06  0.105E-06  0.177E-04  0.702E-04  0.190E-07  0.830E-07
 -12.178  0.209E-04  0.114E-05  0.338E-07  0.230E-07  0.398E-05  0.157E-04  0.428E-08  0.181E-07
 -12.078  0.358E-05  0.192E-06  0.569E-08  0.391E-08  0.684E-06  0.269E-05  0.738E-09  0.305E-08
 -11.978  0.469E-06  0.249E-07  0.740E-09  0.511E-09  0.900E-07  0.352E-06  0.974E-10  0.393E-09
 -11.878  0.471E-07  0.247E-08  0.739E-10  0.513E-10  0.906E-08  0.354E-07  0.983E-11  0.389E-10
 -11.778  0.362E-08  0.187E-09  0.565E-11  0.394E-11  0.698E-09  0.272E-08  0.759E-12  0.295E-11
 -11.678  0.212E-09  0.109E-10  0.331E-12  0.232E-12  0.411E-10  0.160E-09  0.448E-13  0.172E-12
 -11.578  0.955E-11  0.485E-12  0.148E-13  0.104E-13  0.185E-11  0.718E-11  0.203E-14  0.763E-14
 -11.478  0.328E-12  0.165E-13  0.508E-15  0.359E-15  0.636E-13  0.247E-12  0.700E-16  0.260E-15
 -11.378  0.851E-14  0.420E-15  0.131E-16  0.935E-17  0.165E-14  0.641E-14  0.183E-17  0.657E-17
 -11.278  0.000E+00  0.000E+00  0.000E+00  0.000E+00  0.000E+00  0.000E+00  0.000E+00  0.000E+00
 -11.178  0.000E+00  0.000E+00  0.000E+00  0.000E+00  0.000E+00  0.000E+00  0.000E+00  0.000E+00
 -11.078  0.000E+00  0.000E+00  0.000E+00  0.000E+00  0.000E+00  0.000E+00  0.000E+00  0.000E+00
 -10.978  0.000E+00  0.000E+00  0.000E+00  0.000E+00  0.000E+00  0.000E+00  0.000E+00  0.000E+00
 -10.878  0.000E+00  0.000E+00  0.000E+00  0.000E+00  0.000E+00  0.000E+00  0.000E+00  0.000E+00
 -10.778  0.000E+00  0.000E+00  0.000E+00  0.000E+00  0.000E+00  0.000E+00  0.000E+00  0.000E+00
 -10.678  0.000E+00  0.000E+00  0.000E+00  0.000E+00  0.000E+00  0.000E+00  0.000E+00  0.000E+00
 -10.578  0.000E+00  0.000E+00  0.000E+00  0.000E+00  0.000E+00  0.000E+00  0.000E+00  0.000E+00
 -10.478  0.000E+00  0.000E+00  0.000E+00  0.000E+00  0.000E+00  0.000E+00  0.000E+00  0.000E+00
 -10.378  0.000E+00  0.000E+00  0.000E+00  0.000E+00  0.000E+00  0.000E+00  0.000E+00  0.000E+00
 -10.278  0.000E+00  0.000E+00  0.000E+00  0.000E+00  0.000E+00  0.000E+00  0.000E+00  0.000E+00
 -10.178  0.000E+00  0.000E+00  0.000E+00  0.000E+00  0.000E+00  0.000E+00  0.000E+00  0.000E+00
 -10.078  0.000E+00  0.000E+00  0.000E+00  0.000E+00  0.000E+00  0.000E+00  0.000E+00  0.000E+00
  -9.978  0.000E+00  0.000E+00  0.000E+00  0.000E+00  0.000E+00  0.000E+00  0.000E+00  0.000E+00
  -9.878  0.000E+00  0.000E+00  0.000E+00  0.000E+00  0.000E+00  0.000E+00  0.000E+00  0.000E+00
  -9.778  0.000E+00  0.000E+00  0.000E+00  0.000E+00  0.000E+00  0.000E+00  0.000E+00  0.000E+00
  -9.678  0.000E+00  0.000E+00  0.000E+00  0.000E+00  0.000E+00  0.000E+00  0.000E+00  0.000E+00
  -9.578  0.000E+00  0.000E+00  0.000E+00  0.000E+00  0.000E+00  0.000E+00  0.000E+00  0.000E+00
  -9.478  0.000E+00  0.000E+00  0.000E+00  0.000E+00  0.000E+00  0.000E+00  0.000E+00  0.000E+00
  -9.378  0.000E+00  0.000E+00  0.000E+00  0.000E+00  0.000E+00  0.000E+00  0.000E+00  0.000E+00
  -9.278  0.000E+00  0.000E+00  0.000E+00  0.000E+00  0.000E+00  0.000E+00  0.000E+00  0.000E+00
  -9.178  0.000E+00  0.000E+00  0.000E+00  0.000E+00  0.000E+00  0.000E+00  0.000E+00  0.000E+00
  -9.078  0.000E+00  0.000E+00  0.000E+00  0.000E+00  0.000E+00  0.000E+00  0.000E+00  0.000E+00
  -8.978  0.000E+00  0.000E+00  0.000E+00  0.000E+00  0.000E+00  0.000E+00  0.000E+00  0.000E+00
  -8.878  0.676E-16  0.668E-20  0.471E-16  0.391E-17  0.370E-19  0.254E-19  0.435E-17  0.122E-16
  -8.778  0.363E-14  0.168E-17  0.242E-14  0.324E-15  0.200E-17  0.140E-17  0.277E-15  0.605E-15
  -8.678  0.119E-12  0.614E-16  0.785E-13  0.112E-13  0.657E-16  0.461E-16  0.926E-14  0.196E-13
  -8.578  0.298E-11  0.172E-14  0.195E-11  0.296E-12  0.165E-14  0.116E-14  0.237E-12  0.486E-12
  -8.478  0.573E-10  0.370E-13  0.372E-10  0.603E-11  0.317E-13  0.224E-13  0.468E-11  0.925E-11
  -8.378  0.847E-09  0.609E-12  0.545E-09  0.945E-10  0.470E-12  0.334E-12  0.709E-10  0.135E-09
  -8.278  0.964E-08  0.773E-11  0.613E-08  0.114E-08  0.536E-11  0.381E-11  0.827E-09  0.153E-08
  -8.178  0.846E-07  0.755E-10  0.530E-07  0.106E-07  0.472E-10  0.336E-10  0.743E-08  0.133E-07
  -8.078  0.574E-06  0.570E-09  0.354E-06  0.768E-07  0.323E-09  0.230E-09  0.515E-07  0.908E-07
  -7.978  0.302E-05  0.335E-08  0.182E-05  0.430E-06  0.174E-08  0.123E-08  0.276E-06  0.487E-06
  -7.878  0.124E-04  0.154E-07  0.727E-05  0.188E-05  0.747E-08  0.536E-08  0.115E-05  0.209E-05
  -7.778  0.403E-04  0.566E-07  0.226E-04  0.652E-05  0.269E-07  0.207E-07  0.375E-05  0.730E-05
  -7.678  0.105E-03  0.168E-06  0.555E-04  0.182E-04  0.879E-07  0.824E-07  0.972E-05  0.213E-04
  -7.578  0.225E-03  0.412E-06  0.109E-03  0.419E-04  0.292E-06  0.362E-06  0.205E-04  0.528E-04
  -7.478  0.409E-03  0.866E-06  0.174E-03  0.823E-04  0.103E-05  0.158E-05  0.367E-04  0.113E-03
  -7.378  0.656E-03  0.160E-05  0.236E-03  0.141E-03  0.363E-05  0.604E-05  0.582E-04  0.209E-03
  -7.278  0.958E-03  0.268E-05  0.283E-03  0.216E-03  0.116E-04  0.192E-04  0.855E-04  0.340E-03
  -7.178  0.130E-02  0.410E-05  0.318E-03  0.295E-03  0.320E-04  0.502E-04  0.118E-03  0.487E-03
  -7.078  0.168E-02  0.571E-05  0.345E-03  0.371E-03  0.756E-04  0.109E-03  0.152E-03  0.626E-03
  -6.978  0.209E-02  0.713E-05  0.373E-03  0.441E-03  0.152E-03  0.197E-03  0.183E-03  0.736E-03
  -6.878  0.250E-02  0.793E-05  0.405E-03  0.509E-03  0.258E-03  0.305E-03  0.204E-03  0.809E-03
  -6.778  0.285E-02  0.795E-05  0.440E-03  0.557E-03  0.369E-03  0.407E-03  0.212E-03  0.855E-03
  -6.678  0.305E-02  0.754E-05  0.469E-03  0.553E-03  0.448E-03  0.479E-03  0.207E-03  0.890E-03
  -6.578  0.308E-02  0.753E-05  0.470E-03  0.485E-03  0.481E-03  0.523E-03  0.194E-03  0.917E-03
  -6.478  0.296E-02  0.889E-05  0.431E-03  0.384E-03  0.490E-03  0.557E-03  0.180E-03  0.912E-03
  -6.378  0.279E-02  0.124E-04  0.359E-03  0.293E-03  0.519E-03  0.598E-03  0.172E-03  0.834E-03
  -6.278  0.259E-02  0.183E-04  0.277E-03  0.229E-03  0.588E-03  0.639E-03  0.169E-03  0.672E-03
  -6.178  0.242E-02  0.268E-04  0.209E-03  0.191E-03  0.686E-03  0.679E-03  0.165E-03  0.462E-03
  -6.078  0.235E-02  0.389E-04  0.166E-03  0.189E-03  0.787E-03  0.741E-03  0.156E-03  0.270E-03
  -5.978  0.247E-02  0.555E-04  0.153E-03  0.246E-03  0.871E-03  0.857E-03  0.142E-03  0.146E-03
  -5.878  0.282E-02  0.771E-04  0.180E-03  0.385E-03  0.935E-03  0.101E-02  0.128E-03  0.102E-03
  -5.778  0.334E-02  0.102E-03  0.258E-03  0.604E-03  0.984E-03  0.114E-02  0.121E-03  0.127E-03
  -5.678  0.391E-02  0.127E-03  0.390E-03  0.862E-03  0.103E-02  0.117E-02  0.127E-03  0.203E-03
  -5.578  0.442E-02  0.150E-03  0.557E-03  0.108E-02  0.108E-02  0.109E-02  0.148E-03  0.306E-03
  -5.478  0.476E-02  0.171E-03  0.716E-03  0.119E-02  0.113E-02  0.979E-03  0.180E-03  0.393E-03
  -5.378  0.489E-02  0.192E-03  0.822E-03  0.116E-02  0.117E-02  0.898E-03  0.222E-03  0.427E-03
  -5.278  0.482E-02  0.219E-03  0.860E-03  0.101E-02  0.120E-02  0.872E-03  0.268E-03  0.396E-03
  -5.178  0.468E-02  0.263E-03  0.849E-03  0.820E-03  0.121E-02  0.896E-03  0.308E-03  0.330E-03
  -5.078  0.463E-02  0.337E-03  0.826E-03  0.653E-03  0.125E-02  0.966E-03  0.329E-03  0.270E-03
  -4.978  0.482E-02  0.451E-03  0.824E-03  0.571E-03  0.132E-02  0.109E-02  0.333E-03  0.237E-03
  -4.878  0.525E-02  0.591E-03  0.854E-03  0.584E-03  0.139E-02  0.127E-02  0.330E-03  0.231E-03
  -4.778  0.577E-02  0.719E-03  0.888E-03  0.640E-03  0.144E-02  0.153E-02  0.330E-03  0.232E-03
  -4.678  0.618E-02  0.784E-03  0.873E-03  0.663E-03  0.145E-02  0.185E-02  0.329E-03  0.224E-03
  -4.578  0.634E-02  0.760E-03  0.780E-03  0.614E-03  0.148E-02  0.219E-02  0.317E-03  0.202E-03
  -4.478  0.623E-02  0.672E-03  0.638E-03  0.523E-03  0.157E-02  0.236E-02  0.294E-03  0.176E-03
  -4.378  0.589E-02  0.575E-03  0.514E-03  0.446E-03  0.169E-02  0.223E-02  0.273E-03  0.157E-03
  -4.278  0.543E-02  0.513E-03  0.464E-03  0.425E-03  0.177E-02  0.183E-02  0.277E-03  0.151E-03
  -4.178  0.501E-02  0.490E-03  0.498E-03  0.472E-03  0.171E-02  0.135E-02  0.331E-03  0.159E-03
  -4.078  0.477E-02  0.496E-03  0.581E-03  0.575E-03  0.148E-02  0.101E-02  0.458E-03  0.175E-03
  -3.978  0.478E-02  0.529E-03  0.661E-03  0.705E-03  0.117E-02  0.880E-03  0.649E-03  0.191E-03
  -3.878  0.504E-02  0.608E-03  0.708E-03  0.828E-03  0.913E-03  0.932E-03  0.863E-03  0.193E-03
  -3.778  0.555E-02  0.772E-03  0.725E-03  0.910E-03  0.839E-03  0.109E-02  0.104E-02  0.182E-03
  -3.678  0.632E-02  0.105E-02  0.745E-03  0.937E-03  0.101E-02  0.129E-02  0.112E-02  0.165E-03
  -3.578  0.735E-02  0.141E-02  0.799E-03  0.925E-03  0.142E-02  0.152E-02  0.113E-02  0.151E-03
  -3.478  0.848E-02  0.173E-02  0.907E-03  0.919E-03  0.194E-02  0.174E-02  0.110E-02  0.146E-03
  -3.378  0.953E-02  0.188E-02  0.108E-02  0.971E-03  0.238E-02  0.193E-02  0.114E-02  0.148E-03
  -3.278  0.105E-01  0.183E-02  0.134E-02  0.112E-02  0.262E-02  0.208E-02  0.131E-02  0.157E-03
  -3.178  0.114E-01  0.172E-02  0.165E-02  0.135E-02  0.264E-02  0.225E-02  0.160E-02  0.173E-03
  -3.078  0.124E-01  0.168E-02  0.197E-02  0.161E-02  0.252E-02  0.243E-02  0.195E-02  0.194E-03
  -2.978  0.131E-01  0.174E-02  0.220E-02  0.179E-02  0.237E-02  0.255E-02  0.224E-02  0.218E-03
  -2.878  0.134E-01  0.187E-02  0.228E-02  0.180E-02  0.227E-02  0.249E-02  0.240E-02  0.243E-03
  -2.778  0.131E-01  0.203E-02  0.221E-02  0.167E-02  0.226E-02  0.224E-02  0.240E-02  0.280E-03
  -2.678  0.127E-01  0.221E-02  0.210E-02  0.148E-02  0.230E-02  0.191E-02  0.229E-02  0.349E-03
  -2.578  0.123E-01  0.238E-02  0.203E-02  0.136E-02  0.227E-02  0.163E-02  0.212E-02  0.465E-03
  -2.478  0.120E-01  0.245E-02  0.206E-02  0.139E-02  0.209E-02  0.141E-02  0.196E-02  0.618E-03
  -2.378  0.116E-01  0.230E-02  0.222E-02  0.152E-02  0.178E-02  0.119E-02  0.186E-02  0.768E-03
  -2.278  0.112E-01  0.193E-02  0.255E-02  0.168E-02  0.144E-02  0.922E-03  0.182E-02  0.869E-03
  -2.178  0.108E-01  0.147E-02  0.301E-02  0.180E-02  0.114E-02  0.645E-03  0.183E-02  0.907E-03
  -2.078  0.105E-01  0.105E-02  0.350E-02  0.187E-02  0.928E-03  0.417E-03  0.187E-02  0.902E-03
  -1.978  0.103E-01  0.749E-03  0.380E-02  0.193E-02  0.785E-03  0.264E-03  0.187E-02  0.872E-03
  -1.878  0.954E-02  0.536E-03  0.369E-02  0.192E-02  0.698E-03  0.170E-03  0.173E-02  0.799E-03
  -1.778  0.806E-02  0.379E-03  0.308E-02  0.174E-02  0.675E-03  0.109E-03  0.142E-02  0.657E-03
  -1.678  0.604E-02  0.263E-03  0.215E-02  0.137E-02  0.726E-03  0.691E-04  0.100E-02  0.460E-03
  -1.578  0.409E-02  0.184E-03  0.124E-02  0.911E-03  0.822E-03  0.478E-04  0.616E-03  0.267E-03
  -1.478  0.270E-02  0.141E-03  0.591E-03  0.543E-03  0.893E-03  0.425E-04  0.359E-03  0.129E-03
  -1.378  0.203E-02  0.148E-03  0.240E-03  0.352E-03  0.926E-03  0.510E-04  0.250E-03  0.585E-04
  -1.278  0.210E-02  0.234E-03  0.993E-04  0.345E-03  0.103E-02  0.734E-04  0.279E-03  0.370E-04
  -1.178  0.295E-02  0.424E-03  0.705E-04  0.508E-03  0.134E-02  0.111E-03  0.456E-03  0.467E-04
  -1.078  0.453E-02  0.692E-03  0.101E-03  0.843E-03  0.185E-02  0.156E-03  0.814E-03  0.799E-04
  -0.978  0.648E-02  0.937E-03  0.176E-03  0.135E-02  0.233E-02  0.193E-03  0.136E-02  0.136E-03
  -0.878  0.820E-02  0.105E-02  0.280E-03  0.198E-02  0.251E-02  0.204E-03  0.197E-02  0.211E-03
  -0.778  0.912E-02  0.981E-03  0.379E-03  0.258E-02  0.231E-02  0.183E-03  0.240E-02  0.285E-03
  -0.678  0.893E-02  0.805E-03  0.423E-03  0.294E-02  0.186E-02  0.145E-03  0.243E-02  0.326E-03
  -0.578  0.769E-02  0.600E-03  0.390E-03  0.291E-02  0.136E-02  0.103E-03  0.202E-02  0.313E-03
  -0.478  0.580E-02  0.411E-03  0.300E-03  0.249E-02  0.893E-03  0.674E-04  0.139E-02  0.250E-03
  -0.378  0.378E-02  0.253E-03  0.194E-03  0.181E-02  0.523E-03  0.396E-04  0.792E-03  0.168E-03
  -0.278  0.210E-02  0.135E-03  0.106E-03  0.110E-02  0.265E-03  0.204E-04  0.381E-03  0.937E-04
  -0.178  0.966E-03  0.605E-04  0.488E-04  0.538E-03  0.113E-03  0.890E-05  0.154E-03  0.431E-04
  -0.078  0.362E-03  0.221E-04  0.186E-04  0.210E-03  0.398E-04  0.319E-05  0.521E-04  0.161E-04
   0.022  0.113E-03  0.645E-05  0.655E-05  0.650E-04  0.113E-04  0.928E-06  0.175E-04  0.497E-05
   0.122  0.546E-04  0.151E-05  0.723E-05  0.201E-04  0.262E-05  0.252E-06  0.207E-04  0.219E-05
   0.222  0.136E-03  0.368E-06  0.287E-04  0.273E-04  0.721E-06  0.251E-06  0.737E-04  0.465E-05
   0.322  0.460E-03  0.401E-06  0.108E-03  0.986E-04  0.109E-05  0.875E-06  0.237E-03  0.145E-04
   0.422  0.128E-02  0.107E-05  0.325E-03  0.312E-03  0.312E-05  0.288E-05  0.600E-03  0.374E-04
   0.522  0.288E-02  0.261E-05  0.788E-03  0.793E-03  0.753E-05  0.797E-05  0.120E-02  0.778E-04
   0.622  0.533E-02  0.554E-05  0.157E-02  0.164E-02  0.148E-04  0.191E-04  0.194E-02  0.132E-03
   0.722  0.830E-02  0.106E-04  0.263E-02  0.282E-02  0.247E-04  0.417E-04  0.258E-02  0.188E-03
   0.822  0.112E-01  0.198E-04  0.381E-02  0.414E-02  0.399E-04  0.896E-04  0.291E-02  0.235E-03
   0.922  0.136E-01  0.384E-04  0.486E-02  0.530E-02  0.752E-04  0.197E-03  0.290E-02  0.270E-03
   1.022  0.152E-01  0.777E-04  0.556E-02  0.603E-02  0.172E-03  0.425E-03  0.268E-02  0.301E-03
   1.122  0.160E-01  0.152E-03  0.576E-02  0.613E-02  0.398E-03  0.842E-03  0.236E-02  0.336E-03
   1.222  0.160E-01  0.267E-03  0.548E-02  0.564E-02  0.817E-03  0.146E-02  0.202E-02  0.367E-03
   1.322  0.157E-01  0.408E-03  0.484E-02  0.480E-02  0.143E-02  0.219E-02  0.165E-02  0.380E-03
   1.422  0.152E-01  0.546E-03  0.402E-02  0.395E-02  0.217E-02  0.295E-02  0.126E-02  0.368E-03
   1.522  0.150E-01  0.655E-03  0.322E-02  0.331E-02  0.289E-02  0.365E-02  0.890E-03  0.344E-03
   1.622  0.149E-01  0.729E-03  0.259E-02  0.298E-02  0.345E-02  0.427E-02  0.598E-03  0.324E-03
   1.722  0.149E-01  0.777E-03  0.217E-02  0.284E-02  0.370E-02  0.471E-02  0.408E-03  0.309E-03
   1.822  0.143E-01  0.811E-03  0.187E-02  0.269E-02  0.356E-02  0.482E-02  0.294E-03  0.284E-03
   1.922  0.127E-01  0.822E-03  0.157E-02  0.236E-02  0.308E-02  0.444E-02  0.216E-03  0.237E-03
   2.022  0.102E-01  0.786E-03  0.119E-02  0.184E-02  0.245E-02  0.361E-02  0.150E-03  0.175E-03
   2.122  0.731E-02  0.680E-03  0.785E-03  0.125E-02  0.183E-02  0.255E-02  0.940E-04  0.114E-03
   2.222  0.466E-02  0.515E-03  0.440E-03  0.737E-03  0.129E-02  0.155E-02  0.509E-04  0.671E-04
   2.322  0.263E-02  0.331E-03  0.210E-03  0.377E-03  0.831E-03  0.818E-03  0.232E-04  0.357E-04
   2.422  0.130E-02  0.178E-03  0.856E-04  0.169E-03  0.461E-03  0.378E-03  0.871E-05  0.172E-04
   2.522  0.548E-03  0.781E-04  0.303E-04  0.662E-04  0.211E-03  0.152E-03  0.267E-05  0.722E-05
   2.622  0.193E-03  0.277E-04  0.932E-05  0.222E-04  0.781E-04  0.524E-04  0.667E-06  0.257E-05
   2.722  0.551E-04  0.783E-05  0.245E-05  0.620E-05  0.228E-04  0.150E-04  0.136E-06  0.748E-06
   2.822  0.126E-04  0.175E-05  0.536E-06  0.141E-05  0.519E-05  0.348E-05  0.227E-07  0.174E-06
   2.922  0.225E-05  0.306E-06  0.950E-07  0.254E-06  0.917E-06  0.640E-06  0.311E-08  0.317E-07
   3.022  0.313E-06  0.416E-07  0.134E-07  0.360E-07  0.125E-06  0.919E-07  0.347E-09  0.451E-08
   3.122  0.338E-07  0.439E-08  0.147E-08  0.396E-08  0.132E-07  0.102E-07  0.314E-10  0.497E-09
