# E (eV)   ldos(E)   pdos(E)    pdos(E)    pdos(E)    pdos(E)    pdos(E)    pdos(E)    pdos(E)   
 -16.578  0.172E-07  0.802E-10  0.633E-10  0.330E-09  0.474E-10  0.207E-12  0.193E-10  0.166E-07
 -16.478  0.144E-06  0.672E-09  0.609E-09  0.282E-08  0.397E-09  0.198E-11  0.161E-09  0.139E-06
 -16.378  0.928E-06  0.433E-08  0.460E-08  0.186E-07  0.256E-08  0.149E-10  0.103E-08  0.897E-06
 -16.278  0.461E-05  0.215E-07  0.276E-07  0.952E-07  0.127E-07  0.885E-10  0.509E-08  0.445E-05
 -16.178  0.177E-04  0.822E-07  0.132E-06  0.380E-06  0.490E-07  0.422E-09  0.193E-07  0.170E-04
 -16.078  0.525E-04  0.244E-06  0.517E-06  0.120E-05  0.146E-06  0.163E-08  0.567E-07  0.504E-04
 -15.978  0.122E-03  0.564E-06  0.166E-05  0.302E-05  0.339E-06  0.520E-08  0.129E-06  0.116E-03
 -15.878  0.224E-03  0.103E-05  0.443E-05  0.623E-05  0.624E-06  0.138E-07  0.229E-06  0.211E-03
 -15.778  0.332E-03  0.151E-05  0.987E-05  0.109E-04  0.931E-06  0.307E-07  0.322E-06  0.309E-03
 -15.678  0.417E-03  0.187E-05  0.183E-04  0.166E-04  0.118E-05  0.571E-07  0.373E-06  0.379E-03
 -15.578  0.479E-03  0.210E-05  0.284E-04  0.229E-04  0.139E-05  0.893E-07  0.385E-06  0.423E-03
 -15.478  0.541E-03  0.235E-05  0.370E-04  0.290E-04  0.163E-05  0.120E-06  0.402E-06  0.471E-03
 -15.378  0.615E-03  0.266E-05  0.417E-04  0.337E-04  0.196E-05  0.146E-06  0.470E-06  0.534E-03
 -15.278  0.671E-03  0.299E-05  0.440E-04  0.362E-04  0.230E-05  0.192E-06  0.609E-06  0.584E-03
 -15.178  0.684E-03  0.356E-05  0.486E-04  0.368E-04  0.267E-05  0.340E-06  0.831E-06  0.591E-03
 -15.078  0.671E-03  0.606E-05  0.612E-04  0.375E-04  0.351E-05  0.861E-06  0.115E-05  0.560E-03
 -14.978  0.677E-03  0.155E-04  0.853E-04  0.403E-04  0.622E-05  0.266E-05  0.154E-05  0.525E-03
 -14.878  0.739E-03  0.415E-04  0.123E-03  0.468E-04  0.139E-04  0.830E-05  0.199E-05  0.504E-03
 -14.778  0.872E-03  0.955E-04  0.173E-03  0.571E-04  0.313E-04  0.231E-04  0.254E-05  0.490E-03
 -14.678  0.107E-02  0.181E-03  0.234E-03  0.699E-04  0.627E-04  0.545E-04  0.328E-05  0.466E-03
 -14.578  0.132E-02  0.286E-03  0.303E-03  0.813E-04  0.108E-03  0.107E-03  0.416E-05  0.431E-03
 -14.478  0.160E-02  0.389E-03  0.378E-03  0.886E-04  0.158E-03  0.178E-03  0.493E-05  0.400E-03
 -14.378  0.189E-02  0.471E-03  0.461E-03  0.940E-04  0.203E-03  0.265E-03  0.539E-05  0.395E-03
 -14.278  0.222E-02  0.521E-03  0.554E-03  0.105E-03  0.234E-03  0.381E-03  0.560E-05  0.420E-03
 -14.178  0.259E-02  0.536E-03  0.648E-03  0.129E-03  0.254E-03  0.565E-03  0.571E-05  0.449E-03
 -14.078  0.299E-02  0.524E-03  0.714E-03  0.173E-03  0.274E-03  0.856E-03  0.570E-05  0.447E-03
 -13.978  0.342E-02  0.493E-03  0.712E-03  0.246E-03  0.300E-03  0.127E-02  0.537E-05  0.397E-03
 -13.878  0.386E-02  0.456E-03  0.620E-03  0.356E-03  0.335E-03  0.178E-02  0.463E-05  0.307E-03
 -13.778  0.433E-02  0.424E-03  0.469E-03  0.498E-03  0.397E-03  0.233E-02  0.370E-05  0.209E-03
 -13.678  0.479E-02  0.399E-03  0.320E-03  0.648E-03  0.524E-03  0.276E-02  0.294E-05  0.138E-03
 -13.578  0.508E-02  0.361E-03  0.218E-03  0.794E-03  0.761E-03  0.283E-02  0.256E-05  0.116E-03
 -13.478  0.510E-02  0.294E-03  0.172E-03  0.950E-03  0.109E-02  0.245E-02  0.253E-05  0.140E-03
 -13.378  0.484E-02  0.206E-03  0.165E-03  0.111E-02  0.141E-02  0.176E-02  0.267E-05  0.183E-03
 -13.278  0.434E-02  0.128E-03  0.173E-03  0.120E-02  0.156E-02  0.106E-02  0.274E-05  0.208E-03
 -13.178  0.369E-02  0.881E-04  0.166E-03  0.111E-02  0.157E-02  0.567E-03  0.248E-05  0.192E-03
 -13.078  0.317E-02  0.973E-04  0.133E-03  0.835E-03  0.166E-02  0.303E-03  0.189E-05  0.140E-03
 -12.978  0.305E-02  0.143E-03  0.837E-04  0.503E-03  0.203E-02  0.206E-03  0.123E-05  0.819E-04
 -12.878  0.321E-02  0.193E-03  0.413E-04  0.244E-03  0.250E-02  0.195E-03  0.733E-06  0.395E-04
 -12.778  0.317E-02  0.207E-03  0.161E-04  0.991E-04  0.263E-02  0.196E-03  0.450E-06  0.170E-04
 -12.678  0.259E-02  0.172E-03  0.513E-05  0.372E-04  0.220E-02  0.167E-03  0.286E-06  0.731E-05
 -12.578  0.166E-02  0.110E-03  0.147E-05  0.142E-04  0.142E-02  0.112E-03  0.167E-06  0.324E-05
 -12.478  0.824E-03  0.539E-04  0.422E-06  0.543E-05  0.705E-03  0.578E-04  0.813E-07  0.136E-05
 -12.378  0.314E-03  0.202E-04  0.123E-06  0.186E-05  0.268E-03  0.228E-04  0.311E-07  0.478E-06
 -12.278  0.917E-04  0.582E-05  0.328E-07  0.522E-06  0.783E-04  0.689E-05  0.918E-08  0.134E-06
 -12.178  0.205E-04  0.128E-05  0.721E-08  0.115E-06  0.175E-04  0.159E-05  0.208E-08  0.291E-07
 -12.078  0.352E-05  0.217E-06  0.125E-08  0.195E-07  0.299E-05  0.280E-06  0.362E-09  0.487E-08
 -11.978  0.461E-06  0.281E-07  0.167E-09  0.255E-08  0.392E-06  0.376E-07  0.481E-10  0.625E-09
 -11.878  0.463E-07  0.279E-08  0.170E-10  0.255E-09  0.393E-07  0.386E-08  0.489E-11  0.615E-10
 -11.778  0.356E-08  0.212E-09  0.133E-11  0.196E-10  0.302E-08  0.303E-09  0.380E-12  0.464E-11
 -11.678  0.209E-09  0.123E-10  0.796E-13  0.115E-11  0.177E-09  0.181E-10  0.226E-13  0.268E-12
 -11.578  0.941E-11  0.548E-12  0.363E-14  0.514E-13  0.796E-11  0.829E-12  0.103E-14  0.119E-13
 -11.478  0.324E-12  0.187E-13  0.126E-15  0.176E-14  0.274E-12  0.289E-13  0.357E-16  0.402E-15
 -11.378  0.839E-14  0.475E-15  0.336E-17  0.455E-16  0.708E-14  0.769E-15  0.938E-18  0.101E-16
 -11.278  0.000E+00  0.000E+00  0.000E+00  0.000E+00  0.000E+00  0.000E+00  0.000E+00  0.000E+00
 -11.178  0.000E+00  0.000E+00  0.000E+00  0.000E+00  0.000E+00  0.000E+00  0.000E+00  0.000E+00
 -11.078  0.000E+00  0.000E+00  0.000E+00  0.000E+00  0.000E+00  0.000E+00  0.000E+00  0.000E+00
 -10.978  0.000E+00  0.000E+00  0.000E+00  0.000E+00  0.000E+00  0.000E+00  0.000E+00  0.000E+00
 -10.878  0.000E+00  0.000E+00  0.000E+00  0.000E+00  0.000E+00  0.000E+00  0.000E+00  0.000E+00
 -10.778  0.000E+00  0.000E+00  0.000E+00  0.000E+00  0.000E+00  0.000E+00  0.000E+00  0.000E+00
 -10.678  0.000E+00  0.000E+00  0.000E+00  0.000E+00  0.000E+00  0.000E+00  0.000E+00  0.000E+00
 -10.578  0.000E+00  0.000E+00  0.000E+00  0.000E+00  0.000E+00  0.000E+00  0.000E+00  0.000E+00
 -10.478  0.000E+00  0.000E+00  0.000E+00  0.000E+00  0.000E+00  0.000E+00  0.000E+00  0.000E+00
 -10.378  0.000E+00  0.000E+00  0.000E+00  0.000E+00  0.000E+00  0.000E+00  0.000E+00  0.000E+00
 -10.278  0.000E+00  0.000E+00  0.000E+00  0.000E+00  0.000E+00  0.000E+00  0.000E+00  0.000E+00
 -10.178  0.000E+00  0.000E+00  0.000E+00  0.000E+00  0.000E+00  0.000E+00  0.000E+00  0.000E+00
 -10.078  0.000E+00  0.000E+00  0.000E+00  0.000E+00  0.000E+00  0.000E+00  0.000E+00  0.000E+00
  -9.978  0.000E+00  0.000E+00  0.000E+00  0.000E+00  0.000E+00  0.000E+00  0.000E+00  0.000E+00
  -9.878  0.000E+00  0.000E+00  0.000E+00  0.000E+00  0.000E+00  0.000E+00  0.000E+00  0.000E+00
  -9.778  0.000E+00  0.000E+00  0.000E+00  0.000E+00  0.000E+00  0.000E+00  0.000E+00  0.000E+00
  -9.678  0.000E+00  0.000E+00  0.000E+00  0.000E+00  0.000E+00  0.000E+00  0.000E+00  0.000E+00
  -9.578  0.000E+00  0.000E+00  0.000E+00  0.000E+00  0.000E+00  0.000E+00  0.000E+00  0.000E+00
  -9.478  0.000E+00  0.000E+00  0.000E+00  0.000E+00  0.000E+00  0.000E+00  0.000E+00  0.000E+00
  -9.378  0.000E+00  0.000E+00  0.000E+00  0.000E+00  0.000E+00  0.000E+00  0.000E+00  0.000E+00
  -9.278  0.000E+00  0.000E+00  0.000E+00  0.000E+00  0.000E+00  0.000E+00  0.000E+00  0.000E+00
  -9.178  0.000E+00  0.000E+00  0.000E+00  0.000E+00  0.000E+00  0.000E+00  0.000E+00  0.000E+00
  -9.078  0.000E+00  0.000E+00  0.000E+00  0.000E+00  0.000E+00  0.000E+00  0.000E+00  0.000E+00
  -8.978  0.000E+00  0.000E+00  0.000E+00  0.000E+00  0.000E+00  0.000E+00  0.000E+00  0.000E+00
  -8.878  0.773E-16  0.471E-18  0.359E-16  0.306E-16  0.158E-20  0.325E-20  0.718E-17  0.321E-17
  -8.778  0.405E-14  0.239E-16  0.171E-14  0.174E-14  0.150E-18  0.402E-18  0.408E-15  0.175E-15
  -8.678  0.132E-12  0.773E-15  0.550E-13  0.571E-13  0.524E-17  0.143E-16  0.135E-13  0.575E-14
  -8.578  0.330E-11  0.192E-13  0.135E-11  0.144E-11  0.140E-15  0.388E-15  0.340E-12  0.146E-12
  -8.478  0.632E-10  0.365E-12  0.255E-10  0.279E-10  0.289E-14  0.808E-14  0.659E-11  0.284E-11
  -8.378  0.931E-09  0.532E-11  0.368E-09  0.416E-09  0.459E-13  0.130E-12  0.982E-10  0.428E-10
  -8.278  0.105E-07  0.596E-10  0.409E-08  0.476E-08  0.566E-12  0.160E-11  0.113E-08  0.501E-09
  -8.178  0.919E-07  0.513E-09  0.349E-07  0.419E-07  0.545E-11  0.153E-10  0.992E-08  0.460E-08
  -8.078  0.619E-06  0.341E-08  0.230E-06  0.285E-06  0.419E-10  0.114E-09  0.675E-07  0.336E-07
  -7.978  0.324E-05  0.174E-07  0.117E-05  0.149E-05  0.270E-09  0.671E-09  0.354E-06  0.198E-06
  -7.878  0.132E-04  0.692E-07  0.466E-05  0.605E-05  0.159E-08  0.319E-08  0.144E-05  0.960E-06
  -7.778  0.424E-04  0.214E-06  0.146E-04  0.191E-04  0.953E-08  0.129E-07  0.458E-05  0.389E-05
  -7.678  0.109E-03  0.524E-06  0.365E-04  0.474E-04  0.586E-07  0.483E-07  0.115E-04  0.133E-04
  -7.578  0.232E-03  0.103E-05  0.747E-04  0.943E-04  0.337E-06  0.181E-06  0.231E-04  0.381E-04
  -7.478  0.419E-03  0.170E-05  0.129E-03  0.155E-03  0.166E-05  0.678E-06  0.389E-04  0.917E-04
  -7.378  0.669E-03  0.247E-05  0.194E-03  0.222E-03  0.671E-05  0.235E-05  0.568E-04  0.185E-03
  -7.278  0.980E-03  0.336E-05  0.263E-03  0.292E-03  0.222E-04  0.701E-05  0.759E-04  0.317E-03
  -7.178  0.135E-02  0.447E-05  0.331E-03  0.365E-03  0.601E-04  0.176E-04  0.964E-04  0.471E-03
  -7.078  0.176E-02  0.583E-05  0.400E-03  0.427E-03  0.136E-03  0.372E-04  0.120E-03  0.633E-03
  -6.978  0.221E-02  0.728E-05  0.475E-03  0.456E-03  0.257E-03  0.681E-04  0.150E-03  0.794E-03
  -6.878  0.265E-02  0.850E-05  0.549E-03  0.440E-03  0.411E-03  0.112E-03  0.186E-03  0.944E-03
  -6.778  0.299E-02  0.920E-05  0.597E-03  0.388E-03  0.554E-03  0.173E-03  0.217E-03  0.105E-02
  -6.678  0.312E-02  0.927E-05  0.592E-03  0.323E-03  0.635E-03  0.256E-03  0.230E-03  0.108E-02
  -6.578  0.304E-02  0.900E-05  0.528E-03  0.262E-03  0.639E-03  0.360E-03  0.222E-03  0.102E-02
  -6.478  0.282E-02  0.923E-05  0.433E-03  0.209E-03  0.611E-03  0.473E-03  0.203E-03  0.881E-03
  -6.378  0.259E-02  0.110E-04  0.342E-03  0.169E-03  0.613E-03  0.572E-03  0.188E-03  0.698E-03
  -6.278  0.242E-02  0.150E-04  0.272E-03  0.142E-03  0.669E-03  0.639E-03  0.179E-03  0.498E-03
  -6.178  0.231E-02  0.219E-04  0.228E-03  0.124E-03  0.762E-03  0.684E-03  0.172E-03  0.315E-03
  -6.078  0.230E-02  0.327E-04  0.215E-03  0.114E-03  0.859E-03  0.742E-03  0.161E-03  0.178E-03
  -5.978  0.245E-02  0.494E-04  0.252E-03  0.114E-03  0.941E-03  0.845E-03  0.148E-03  0.102E-03
  -5.878  0.277E-02  0.727E-04  0.358E-03  0.129E-03  0.100E-02  0.981E-03  0.137E-03  0.861E-04
  -5.778  0.320E-02  0.101E-03  0.538E-03  0.165E-03  0.105E-02  0.109E-02  0.139E-03  0.123E-03
  -5.678  0.369E-02  0.129E-03  0.780E-03  0.225E-03  0.108E-02  0.112E-02  0.156E-03  0.203E-03
  -5.578  0.416E-02  0.153E-03  0.104E-02  0.318E-03  0.109E-02  0.107E-02  0.185E-03  0.305E-03
  -5.478  0.456E-02  0.170E-03  0.124E-02  0.439E-03  0.110E-02  0.100E-02  0.218E-03  0.391E-03
  -5.378  0.482E-02  0.185E-03  0.132E-02  0.572E-03  0.110E-02  0.970E-03  0.250E-03  0.430E-03
  -5.278  0.492E-02  0.205E-03  0.125E-02  0.692E-03  0.109E-02  0.996E-03  0.280E-03  0.413E-03
  -5.178  0.495E-02  0.248E-03  0.109E-02  0.790E-03  0.106E-02  0.109E-02  0.303E-03  0.367E-03
  -5.078  0.508E-02  0.335E-03  0.902E-03  0.879E-03  0.105E-02  0.127E-02  0.315E-03  0.322E-03
  -4.978  0.544E-02  0.478E-03  0.742E-03  0.970E-03  0.111E-02  0.152E-02  0.321E-03  0.293E-03
  -4.878  0.602E-02  0.657E-03  0.640E-03  0.106E-02  0.124E-02  0.180E-02  0.335E-03  0.279E-03
  -4.778  0.663E-02  0.826E-03  0.585E-03  0.113E-02  0.144E-02  0.202E-02  0.362E-03  0.267E-03
  -4.678  0.700E-02  0.936E-03  0.542E-03  0.111E-02  0.164E-02  0.215E-02  0.388E-03  0.243E-03
  -4.578  0.700E-02  0.968E-03  0.500E-03  0.998E-03  0.177E-02  0.216E-02  0.401E-03  0.204E-03
  -4.478  0.666E-02  0.931E-03  0.473E-03  0.822E-03  0.181E-02  0.207E-02  0.400E-03  0.162E-03
  -4.378  0.612E-02  0.850E-03  0.480E-03  0.660E-03  0.175E-02  0.185E-02  0.395E-03  0.133E-03
  -4.278  0.554E-02  0.754E-03  0.528E-03  0.570E-03  0.163E-02  0.153E-02  0.407E-03  0.126E-03
  -4.178  0.512E-02  0.674E-03  0.622E-03  0.566E-03  0.148E-02  0.118E-02  0.462E-03  0.142E-03
  -4.078  0.496E-02  0.632E-03  0.758E-03  0.621E-03  0.133E-02  0.872E-03  0.578E-03  0.167E-03
  -3.978  0.507E-02  0.625E-03  0.906E-03  0.686E-03  0.125E-02  0.674E-03  0.749E-03  0.185E-03
  -3.878  0.537E-02  0.638E-03  0.101E-02  0.719E-03  0.127E-02  0.614E-03  0.933E-03  0.185E-03
  -3.778  0.578E-02  0.670E-03  0.105E-02  0.709E-03  0.140E-02  0.713E-03  0.107E-02  0.169E-03
  -3.678  0.634E-02  0.756E-03  0.102E-02  0.679E-03  0.164E-02  0.989E-03  0.110E-02  0.152E-03
  -3.578  0.712E-02  0.919E-03  0.975E-03  0.660E-03  0.197E-02  0.142E-02  0.104E-02  0.143E-03
  -3.478  0.803E-02  0.112E-02  0.954E-03  0.688E-03  0.231E-02  0.188E-02  0.922E-03  0.145E-03
  -3.378  0.886E-02  0.129E-02  0.986E-03  0.815E-03  0.256E-02  0.220E-02  0.853E-03  0.156E-03
  -3.278  0.956E-02  0.139E-02  0.108E-02  0.110E-02  0.264E-02  0.227E-02  0.905E-03  0.178E-03
  -3.178  0.103E-01  0.145E-02  0.123E-02  0.152E-02  0.257E-02  0.217E-02  0.110E-02  0.208E-03
  -3.078  0.110E-01  0.157E-02  0.140E-02  0.199E-02  0.240E-02  0.206E-02  0.139E-02  0.240E-03
  -2.978  0.117E-01  0.173E-02  0.153E-02  0.231E-02  0.215E-02  0.203E-02  0.170E-02  0.264E-03
  -2.878  0.120E-01  0.191E-02  0.156E-02  0.241E-02  0.183E-02  0.206E-02  0.196E-02  0.278E-03
  -2.778  0.119E-01  0.206E-02  0.149E-02  0.231E-02  0.149E-02  0.210E-02  0.212E-02  0.297E-03
  -2.678  0.116E-01  0.220E-02  0.137E-02  0.218E-02  0.119E-02  0.212E-02  0.217E-02  0.348E-03
  -2.578  0.115E-01  0.232E-02  0.133E-02  0.213E-02  0.978E-03  0.212E-02  0.217E-02  0.448E-03
  -2.478  0.118E-01  0.239E-02  0.148E-02  0.221E-02  0.849E-03  0.209E-02  0.221E-02  0.585E-03
  -2.378  0.123E-01  0.231E-02  0.184E-02  0.237E-02  0.767E-03  0.202E-02  0.232E-02  0.722E-03
  -2.278  0.128E-01  0.204E-02  0.227E-02  0.256E-02  0.685E-03  0.189E-02  0.248E-02  0.824E-03
  -2.178  0.128E-01  0.166E-02  0.256E-02  0.275E-02  0.586E-03  0.172E-02  0.262E-02  0.883E-03
  -2.078  0.123E-01  0.126E-02  0.259E-02  0.293E-02  0.478E-03  0.151E-02  0.267E-02  0.914E-03
  -1.978  0.114E-01  0.919E-03  0.235E-02  0.308E-02  0.373E-03  0.127E-02  0.253E-02  0.915E-03
  -1.878  0.991E-02  0.655E-03  0.191E-02  0.303E-02  0.278E-03  0.100E-02  0.218E-02  0.849E-03
  -1.778  0.780E-02  0.457E-03  0.138E-02  0.264E-02  0.205E-03  0.763E-03  0.166E-02  0.689E-03
  -1.678  0.547E-02  0.316E-03  0.872E-03  0.196E-02  0.160E-03  0.599E-03  0.110E-02  0.470E-03
  -1.578  0.347E-02  0.224E-03  0.478E-03  0.121E-02  0.142E-03  0.515E-03  0.630E-03  0.264E-03
  -1.478  0.216E-02  0.177E-03  0.247E-03  0.649E-03  0.142E-03  0.485E-03  0.337E-03  0.125E-03
  -1.378  0.162E-02  0.178E-03  0.164E-03  0.344E-03  0.153E-03  0.516E-03  0.207E-03  0.549E-04
  -1.278  0.182E-02  0.254E-03  0.199E-03  0.262E-03  0.180E-03  0.688E-03  0.205E-03  0.331E-04
  -1.178  0.280E-02  0.432E-03  0.340E-03  0.355E-03  0.229E-03  0.108E-02  0.320E-03  0.414E-04
  -1.078  0.444E-02  0.689E-03  0.591E-03  0.600E-03  0.289E-03  0.163E-02  0.563E-03  0.734E-04
  -0.978  0.635E-02  0.928E-03  0.933E-03  0.976E-03  0.330E-03  0.212E-02  0.938E-03  0.126E-03
  -0.878  0.792E-02  0.103E-02  0.131E-02  0.141E-02  0.326E-03  0.228E-02  0.137E-02  0.189E-03
  -0.778  0.863E-02  0.964E-03  0.163E-02  0.175E-02  0.276E-03  0.207E-02  0.171E-02  0.238E-03
  -0.678  0.831E-02  0.785E-03  0.179E-02  0.188E-02  0.208E-03  0.163E-02  0.177E-02  0.250E-03
  -0.578  0.710E-02  0.579E-03  0.173E-02  0.175E-02  0.143E-03  0.116E-02  0.152E-02  0.219E-03
  -0.478  0.538E-02  0.395E-03  0.146E-02  0.143E-02  0.915E-04  0.759E-03  0.109E-02  0.162E-03
  -0.378  0.357E-02  0.245E-03  0.104E-02  0.101E-02  0.533E-04  0.452E-03  0.666E-03  0.101E-03
  -0.278  0.202E-02  0.133E-03  0.617E-03  0.610E-03  0.271E-04  0.237E-03  0.346E-03  0.527E-04
  -0.178  0.952E-03  0.604E-04  0.296E-03  0.302E-03  0.116E-04  0.106E-03  0.152E-03  0.230E-04
  -0.078  0.363E-03  0.224E-04  0.113E-03  0.120E-03  0.406E-05  0.386E-04  0.559E-04  0.822E-05
   0.022  0.115E-03  0.662E-05  0.350E-04  0.386E-04  0.114E-05  0.114E-04  0.199E-04  0.252E-05
   0.122  0.600E-04  0.156E-05  0.149E-04  0.156E-04  0.275E-06  0.269E-05  0.235E-04  0.146E-05
   0.222  0.158E-03  0.370E-06  0.364E-04  0.327E-04  0.158E-06  0.753E-06  0.839E-04  0.385E-05
   0.322  0.540E-03  0.358E-06  0.138E-03  0.115E-03  0.507E-06  0.116E-05  0.273E-03  0.119E-04
   0.422  0.150E-02  0.917E-06  0.427E-03  0.336E-03  0.179E-05  0.345E-05  0.698E-03  0.304E-04
   0.522  0.332E-02  0.223E-05  0.106E-02  0.779E-03  0.533E-05  0.883E-05  0.140E-02  0.638E-04
   0.622  0.594E-02  0.481E-05  0.211E-02  0.145E-02  0.135E-04  0.188E-04  0.223E-02  0.113E-03
   0.722  0.882E-02  0.947E-05  0.347E-02  0.224E-02  0.310E-04  0.348E-04  0.286E-02  0.172E-03
   0.822  0.112E-01  0.181E-04  0.480E-02  0.300E-02  0.706E-04  0.604E-04  0.303E-02  0.231E-03
   0.922  0.128E-01  0.360E-04  0.573E-02  0.365E-02  0.167E-03  0.109E-03  0.278E-02  0.281E-03
   1.022  0.137E-01  0.739E-04  0.606E-02  0.425E-02  0.393E-03  0.215E-03  0.236E-02  0.314E-03
   1.122  0.143E-01  0.146E-03  0.582E-02  0.473E-02  0.834E-03  0.441E-03  0.198E-02  0.333E-03
   1.222  0.148E-01  0.260E-03  0.519E-02  0.493E-02  0.151E-02  0.857E-03  0.166E-02  0.344E-03
   1.322  0.150E-01  0.404E-03  0.439E-02  0.466E-02  0.233E-02  0.150E-02  0.136E-02  0.347E-03
   1.422  0.150E-01  0.549E-03  0.363E-02  0.395E-02  0.308E-02  0.237E-02  0.105E-02  0.341E-03
   1.522  0.149E-01  0.667E-03  0.307E-02  0.311E-02  0.367E-02  0.335E-02  0.739E-03  0.332E-03
   1.622  0.152E-01  0.744E-03  0.279E-02  0.244E-02  0.410E-02  0.427E-02  0.496E-03  0.333E-03
   1.722  0.154E-01  0.786E-03  0.270E-02  0.205E-02  0.437E-02  0.484E-02  0.340E-03  0.340E-03
   1.822  0.150E-01  0.808E-03  0.258E-02  0.179E-02  0.441E-02  0.486E-02  0.248E-03  0.332E-03
   1.922  0.135E-01  0.821E-03  0.226E-02  0.151E-02  0.410E-02  0.433E-02  0.186E-03  0.290E-03
   2.022  0.109E-01  0.816E-03  0.174E-02  0.114E-02  0.341E-02  0.346E-02  0.133E-03  0.218E-03
   2.122  0.794E-02  0.770E-03  0.114E-02  0.757E-03  0.250E-02  0.255E-02  0.856E-04  0.139E-03
   2.222  0.517E-02  0.659E-03  0.630E-03  0.432E-03  0.158E-02  0.175E-02  0.475E-04  0.754E-04
   2.322  0.300E-02  0.489E-03  0.294E-03  0.212E-03  0.850E-03  0.110E-02  0.222E-04  0.354E-04
   2.422  0.153E-02  0.302E-03  0.116E-03  0.897E-04  0.389E-03  0.612E-03  0.858E-05  0.145E-04
   2.522  0.668E-03  0.151E-03  0.391E-04  0.326E-04  0.150E-03  0.287E-03  0.274E-05  0.519E-05
   2.622  0.242E-03  0.604E-04  0.113E-04  0.101E-04  0.483E-04  0.109E-03  0.726E-06  0.159E-05
   2.722  0.706E-04  0.189E-04  0.281E-05  0.261E-05  0.128E-04  0.329E-04  0.161E-06  0.409E-06
   2.822  0.164E-04  0.460E-05  0.583E-06  0.555E-06  0.275E-05  0.777E-05  0.298E-07  0.856E-07
   2.922  0.298E-05  0.868E-06  0.994E-07  0.947E-07  0.472E-06  0.142E-05  0.458E-08  0.144E-07
   3.022  0.420E-06  0.126E-06  0.136E-07  0.128E-07  0.638E-07  0.201E-06  0.578E-09  0.190E-08
   3.122  0.459E-07  0.141E-07  0.146E-08  0.135E-08  0.676E-08  0.219E-07  0.588E-10  0.197E-09
