# E (eV)   ldos(E)   pdos(E)    pdos(E)    pdos(E)   
 -16.578  0.150E-06  0.142E-06  0.479E-08  0.357E-08
 -16.478  0.127E-05  0.119E-05  0.418E-07  0.330E-07
 -16.378  0.825E-05  0.773E-05  0.283E-06  0.237E-06
 -16.278  0.415E-04  0.386E-04  0.149E-05  0.133E-05
 -16.178  0.162E-03  0.150E-03  0.614E-05  0.591E-05
 -16.078  0.493E-03  0.452E-03  0.200E-04  0.208E-04
 -15.978  0.119E-02  0.108E-02  0.525E-04  0.593E-04
 -15.878  0.231E-02  0.205E-02  0.115E-03  0.139E-03
 -15.778  0.371E-02  0.320E-02  0.223E-03  0.278E-03
 -15.678  0.510E-02  0.421E-02  0.407E-03  0.489E-03
 -15.578  0.625E-02  0.475E-02  0.720E-03  0.778E-03
 -15.478  0.697E-02  0.465E-02  0.119E-02  0.112E-02
 -15.378  0.716E-02  0.393E-02  0.176E-02  0.147E-02
 -15.278  0.687E-02  0.285E-02  0.226E-02  0.176E-02
 -15.178  0.649E-02  0.185E-02  0.259E-02  0.205E-02
 -15.078  0.662E-02  0.131E-02  0.281E-02  0.251E-02
 -14.978  0.774E-02  0.139E-02  0.306E-02  0.329E-02
 -14.878  0.999E-02  0.221E-02  0.341E-02  0.438E-02
 -14.778  0.132E-01  0.391E-02  0.378E-02  0.549E-02
 -14.678  0.167E-01  0.647E-02  0.405E-02  0.620E-02
 -14.578  0.197E-01  0.927E-02  0.419E-02  0.628E-02
 -14.478  0.216E-01  0.113E-01  0.430E-02  0.602E-02
 -14.378  0.224E-01  0.117E-01  0.463E-02  0.604E-02
 -14.278  0.230E-01  0.109E-01  0.535E-02  0.680E-02
 -14.178  0.241E-01  0.954E-02  0.640E-02  0.816E-02
 -14.078  0.255E-01  0.846E-02  0.753E-02  0.949E-02
 -13.978  0.261E-01  0.771E-02  0.836E-02  0.999E-02
 -13.878  0.249E-01  0.709E-02  0.861E-02  0.918E-02
 -13.778  0.220E-01  0.640E-02  0.824E-02  0.738E-02
 -13.678  0.185E-01  0.559E-02  0.751E-02  0.542E-02
 -13.578  0.156E-01  0.474E-02  0.685E-02  0.400E-02
 -13.478  0.140E-01  0.407E-02  0.656E-02  0.332E-02
 -13.378  0.134E-01  0.379E-02  0.655E-02  0.310E-02
 -13.278  0.130E-01  0.376E-02  0.631E-02  0.294E-02
 -13.178  0.116E-01  0.355E-02  0.546E-02  0.255E-02
 -13.078  0.922E-02  0.294E-02  0.428E-02  0.199E-02
 -12.978  0.704E-02  0.216E-02  0.338E-02  0.150E-02
 -12.878  0.573E-02  0.153E-02  0.298E-02  0.122E-02
 -12.778  0.488E-02  0.113E-02  0.271E-02  0.103E-02
 -12.678  0.381E-02  0.830E-03  0.218E-02  0.805E-03
 -12.578  0.245E-02  0.529E-03  0.141E-02  0.514E-03
 -12.478  0.124E-02  0.271E-03  0.707E-03  0.258E-03
 -12.378  0.481E-03  0.108E-03  0.274E-03  0.997E-04
 -12.278  0.144E-03  0.330E-04  0.811E-04  0.296E-04
 -12.178  0.329E-04  0.771E-05  0.184E-04  0.673E-05
 -12.078  0.575E-05  0.138E-05  0.320E-05  0.117E-05
 -11.978  0.769E-06  0.188E-06  0.425E-06  0.156E-06
 -11.878  0.786E-07  0.196E-07  0.432E-07  0.158E-07
 -11.778  0.615E-08  0.156E-08  0.336E-08  0.123E-08
 -11.678  0.367E-09  0.946E-10  0.200E-09  0.732E-10
 -11.578  0.168E-10  0.439E-11  0.907E-11  0.332E-11
 -11.478  0.585E-12  0.155E-12  0.315E-12  0.115E-12
 -11.378  0.154E-13  0.420E-14  0.821E-14  0.302E-14
 -11.278  0.000E+00  0.000E+00  0.000E+00  0.000E+00
 -11.178  0.000E+00  0.000E+00  0.000E+00  0.000E+00
 -11.078  0.000E+00  0.000E+00  0.000E+00  0.000E+00
 -10.978  0.000E+00  0.000E+00  0.000E+00  0.000E+00
 -10.878  0.000E+00  0.000E+00  0.000E+00  0.000E+00
 -10.778  0.000E+00  0.000E+00  0.000E+00  0.000E+00
 -10.678  0.000E+00  0.000E+00  0.000E+00  0.000E+00
 -10.578  0.000E+00  0.000E+00  0.000E+00  0.000E+00
 -10.478  0.000E+00  0.000E+00  0.000E+00  0.000E+00
 -10.378  0.000E+00  0.000E+00  0.000E+00  0.000E+00
 -10.278  0.000E+00  0.000E+00  0.000E+00  0.000E+00
 -10.178  0.000E+00  0.000E+00  0.000E+00  0.000E+00
 -10.078  0.000E+00  0.000E+00  0.000E+00  0.000E+00
  -9.978  0.000E+00  0.000E+00  0.000E+00  0.000E+00
  -9.878  0.000E+00  0.000E+00  0.000E+00  0.000E+00
  -9.778  0.000E+00  0.000E+00  0.000E+00  0.000E+00
  -9.678  0.000E+00  0.000E+00  0.000E+00  0.000E+00
  -9.578  0.000E+00  0.000E+00  0.000E+00  0.000E+00
  -9.478  0.000E+00  0.000E+00  0.000E+00  0.000E+00
  -9.378  0.000E+00  0.000E+00  0.000E+00  0.000E+00
  -9.278  0.000E+00  0.000E+00  0.000E+00  0.000E+00
  -9.178  0.000E+00  0.000E+00  0.000E+00  0.000E+00
  -9.078  0.000E+00  0.000E+00  0.000E+00  0.000E+00
  -8.978  0.000E+00  0.000E+00  0.000E+00  0.000E+00
  -8.878  0.227E-13  0.244E-16  0.182E-13  0.449E-14
  -8.778  0.120E-11  0.137E-14  0.894E-12  0.306E-12
  -8.678  0.393E-10  0.453E-13  0.289E-10  0.104E-10
  -8.578  0.983E-09  0.115E-11  0.713E-09  0.269E-09
  -8.478  0.189E-07  0.225E-10  0.135E-07  0.536E-08
  -8.378  0.279E-06  0.341E-09  0.196E-06  0.825E-07
  -8.278  0.317E-05  0.401E-08  0.219E-05  0.979E-06
  -8.178  0.278E-04  0.371E-07  0.188E-04  0.898E-05
  -8.078  0.188E-03  0.276E-06  0.124E-03  0.638E-04
  -7.978  0.990E-03  0.169E-05  0.635E-03  0.352E-03
  -7.878  0.406E-02  0.908E-05  0.253E-02  0.153E-02
  -7.778  0.132E-01  0.447E-04  0.787E-02  0.525E-02
  -7.678  0.343E-01  0.208E-03  0.195E-01  0.146E-01
  -7.578  0.739E-01  0.902E-03  0.396E-01  0.334E-01
  -7.478  0.137E+00  0.349E-02  0.677E-01  0.654E-01
  -7.378  0.227E+00  0.117E-01  0.103E+00  0.113E+00
  -7.278  0.353E+00  0.327E-01  0.145E+00  0.175E+00
  -7.178  0.517E+00  0.763E-01  0.195E+00  0.246E+00
  -7.078  0.712E+00  0.147E+00  0.251E+00  0.314E+00
  -6.978  0.905E+00  0.236E+00  0.305E+00  0.364E+00
  -6.878  0.105E+01  0.315E+00  0.347E+00  0.387E+00
  -6.778  0.110E+01  0.360E+00  0.363E+00  0.380E+00
  -6.678  0.106E+01  0.362E+00  0.351E+00  0.348E+00
  -6.578  0.958E+00  0.337E+00  0.323E+00  0.298E+00
  -6.478  0.849E+00  0.307E+00  0.297E+00  0.245E+00
  -6.378  0.762E+00  0.285E+00  0.277E+00  0.199E+00
  -6.278  0.686E+00  0.265E+00  0.258E+00  0.163E+00
  -6.178  0.609E+00  0.241E+00  0.233E+00  0.136E+00
  -6.078  0.543E+00  0.214E+00  0.210E+00  0.119E+00
  -5.978  0.517E+00  0.200E+00  0.198E+00  0.119E+00
  -5.878  0.545E+00  0.207E+00  0.200E+00  0.138E+00
  -5.778  0.610E+00  0.233E+00  0.206E+00  0.171E+00
  -5.678  0.679E+00  0.265E+00  0.206E+00  0.207E+00
  -5.578  0.718E+00  0.286E+00  0.199E+00  0.233E+00
  -5.478  0.718E+00  0.282E+00  0.194E+00  0.242E+00
  -5.378  0.689E+00  0.256E+00  0.195E+00  0.237E+00
  -5.278  0.650E+00  0.227E+00  0.196E+00  0.228E+00
  -5.178  0.619E+00  0.206E+00  0.190E+00  0.223E+00
  -5.078  0.611E+00  0.200E+00  0.181E+00  0.231E+00
  -4.978  0.639E+00  0.206E+00  0.180E+00  0.253E+00
  -4.878  0.698E+00  0.221E+00  0.196E+00  0.281E+00
  -4.778  0.762E+00  0.239E+00  0.224E+00  0.299E+00
  -4.678  0.794E+00  0.249E+00  0.252E+00  0.293E+00
  -4.578  0.771E+00  0.243E+00  0.265E+00  0.263E+00
  -4.478  0.702E+00  0.221E+00  0.258E+00  0.223E+00
  -4.378  0.609E+00  0.188E+00  0.233E+00  0.188E+00
  -4.278  0.521E+00  0.157E+00  0.197E+00  0.167E+00
  -4.178  0.458E+00  0.135E+00  0.165E+00  0.158E+00
  -4.078  0.437E+00  0.129E+00  0.148E+00  0.160E+00
  -3.978  0.457E+00  0.141E+00  0.149E+00  0.168E+00
  -3.878  0.506E+00  0.164E+00  0.162E+00  0.180E+00
  -3.778  0.562E+00  0.197E+00  0.175E+00  0.191E+00
  -3.678  0.611E+00  0.237E+00  0.180E+00  0.194E+00
  -3.578  0.655E+00  0.287E+00  0.178E+00  0.190E+00
  -3.478  0.703E+00  0.340E+00  0.176E+00  0.187E+00
  -3.378  0.759E+00  0.386E+00  0.183E+00  0.191E+00
  -3.278  0.818E+00  0.412E+00  0.203E+00  0.203E+00
  -3.178  0.870E+00  0.414E+00  0.235E+00  0.221E+00
  -3.078  0.902E+00  0.391E+00  0.274E+00  0.237E+00
  -2.978  0.906E+00  0.356E+00  0.305E+00  0.246E+00
  -2.878  0.877E+00  0.321E+00  0.316E+00  0.240E+00
  -2.778  0.822E+00  0.293E+00  0.305E+00  0.223E+00
  -2.678  0.755E+00  0.273E+00  0.279E+00  0.204E+00
  -2.578  0.690E+00  0.254E+00  0.244E+00  0.191E+00
  -2.478  0.622E+00  0.233E+00  0.205E+00  0.184E+00
  -2.378  0.541E+00  0.205E+00  0.162E+00  0.174E+00
  -2.278  0.447E+00  0.171E+00  0.121E+00  0.154E+00
  -2.178  0.357E+00  0.143E+00  0.891E-01  0.125E+00
  -2.078  0.292E+00  0.128E+00  0.687E-01  0.958E-01
  -1.978  0.256E+00  0.124E+00  0.580E-01  0.737E-01
  -1.878  0.231E+00  0.120E+00  0.505E-01  0.598E-01
  -1.778  0.198E+00  0.107E+00  0.408E-01  0.498E-01
  -1.678  0.154E+00  0.856E-01  0.286E-01  0.399E-01
  -1.578  0.111E+00  0.638E-01  0.172E-01  0.296E-01
  -1.478  0.777E-01  0.475E-01  0.936E-02  0.209E-01
  -1.378  0.567E-01  0.359E-01  0.553E-02  0.153E-01
  -1.278  0.451E-01  0.269E-01  0.458E-02  0.136E-01
  -1.178  0.421E-01  0.201E-01  0.555E-02  0.164E-01
  -1.078  0.479E-01  0.164E-01  0.805E-02  0.235E-01
  -0.978  0.612E-01  0.154E-01  0.118E-01  0.340E-01
  -0.878  0.782E-01  0.155E-01  0.167E-01  0.460E-01
  -0.778  0.942E-01  0.152E-01  0.225E-01  0.564E-01
  -0.678  0.104E+00  0.138E-01  0.288E-01  0.619E-01
  -0.578  0.105E+00  0.111E-01  0.338E-01  0.599E-01
  -0.478  0.928E-01  0.797E-02  0.344E-01  0.504E-01
  -0.378  0.701E-01  0.503E-02  0.290E-01  0.360E-01
  -0.278  0.436E-01  0.274E-02  0.196E-01  0.213E-01
  -0.178  0.218E-01  0.125E-02  0.104E-01  0.102E-01
  -0.078  0.863E-02  0.476E-03  0.426E-02  0.390E-02
   0.022  0.285E-02  0.200E-03  0.140E-02  0.125E-02
   0.122  0.178E-02  0.378E-03  0.628E-03  0.776E-03
   0.222  0.533E-02  0.154E-02  0.145E-02  0.234E-02
   0.322  0.186E-01  0.538E-02  0.508E-02  0.816E-02
   0.422  0.526E-01  0.150E-01  0.146E-01  0.230E-01
   0.522  0.119E+00  0.334E-01  0.340E-01  0.514E-01
   0.622  0.218E+00  0.602E-01  0.650E-01  0.925E-01
   0.722  0.332E+00  0.897E-01  0.106E+00  0.136E+00
   0.822  0.437E+00  0.114E+00  0.153E+00  0.170E+00
   0.922  0.518E+00  0.129E+00  0.201E+00  0.188E+00
   1.022  0.576E+00  0.138E+00  0.241E+00  0.197E+00
   1.122  0.609E+00  0.143E+00  0.261E+00  0.204E+00
   1.222  0.608E+00  0.145E+00  0.251E+00  0.211E+00
   1.322  0.575E+00  0.139E+00  0.219E+00  0.217E+00
   1.422  0.535E+00  0.129E+00  0.184E+00  0.222E+00
   1.522  0.521E+00  0.124E+00  0.166E+00  0.231E+00
   1.622  0.553E+00  0.131E+00  0.174E+00  0.248E+00
   1.722  0.612E+00  0.151E+00  0.199E+00  0.262E+00
   1.822  0.651E+00  0.173E+00  0.222E+00  0.256E+00
   1.922  0.627E+00  0.183E+00  0.224E+00  0.220E+00
   2.022  0.526E+00  0.170E+00  0.194E+00  0.162E+00
   2.122  0.375E+00  0.133E+00  0.141E+00  0.102E+00
   2.222  0.225E+00  0.859E-01  0.841E-01  0.550E-01
   2.322  0.112E+00  0.452E-01  0.410E-01  0.259E-01
   2.422  0.463E-01  0.192E-01  0.163E-01  0.108E-01
   2.522  0.159E-01  0.662E-02  0.530E-02  0.395E-02
   2.622  0.451E-02  0.184E-02  0.142E-02  0.125E-02
   2.722  0.106E-02  0.418E-03  0.316E-03  0.330E-03
   2.822  0.207E-03  0.773E-04  0.581E-04  0.711E-04
   2.922  0.326E-04  0.116E-04  0.873E-05  0.122E-04
   3.022  0.413E-05  0.142E-05  0.106E-05  0.166E-05
   3.122  0.415E-06  0.138E-06  0.102E-06  0.175E-06
