# E (eV)   ldos(E)   pdos(E)    pdos(E)    pdos(E)   
 -16.578  0.151E-06  0.147E-06  0.288E-08  0.168E-08
 -16.478  0.128E-05  0.123E-05  0.266E-07  0.156E-07
 -16.378  0.830E-05  0.799E-05  0.192E-06  0.113E-06
 -16.278  0.417E-04  0.399E-04  0.108E-05  0.644E-06
 -16.178  0.162E-03  0.155E-03  0.478E-05  0.288E-05
 -16.078  0.494E-03  0.467E-03  0.168E-04  0.102E-04
 -15.978  0.119E-02  0.111E-02  0.485E-04  0.293E-04
 -15.878  0.229E-02  0.211E-02  0.118E-03  0.691E-04
 -15.778  0.366E-02  0.326E-02  0.259E-03  0.138E-03
 -15.678  0.500E-02  0.423E-02  0.534E-03  0.237E-03
 -15.578  0.609E-02  0.469E-02  0.103E-02  0.362E-03
 -15.478  0.681E-02  0.451E-02  0.179E-02  0.500E-03
 -15.378  0.711E-02  0.378E-02  0.268E-02  0.657E-03
 -15.278  0.706E-02  0.279E-02  0.338E-02  0.881E-03
 -15.178  0.694E-02  0.197E-02  0.370E-02  0.127E-02
 -15.078  0.718E-02  0.158E-02  0.372E-02  0.188E-02
 -14.978  0.808E-02  0.170E-02  0.371E-02  0.268E-02
 -14.878  0.983E-02  0.234E-02  0.389E-02  0.359E-02
 -14.778  0.126E-01  0.359E-02  0.432E-02  0.470E-02
 -14.678  0.164E-01  0.537E-02  0.491E-02  0.614E-02
 -14.578  0.206E-01  0.727E-02  0.555E-02  0.778E-02
 -14.478  0.240E-01  0.872E-02  0.613E-02  0.914E-02
 -14.378  0.259E-01  0.948E-02  0.658E-02  0.981E-02
 -14.278  0.263E-01  0.975E-02  0.684E-02  0.974E-02
 -14.178  0.258E-01  0.972E-02  0.688E-02  0.916E-02
 -14.078  0.244E-01  0.933E-02  0.678E-02  0.831E-02
 -13.978  0.226E-01  0.850E-02  0.657E-02  0.747E-02
 -13.878  0.205E-01  0.739E-02  0.623E-02  0.688E-02
 -13.778  0.186E-01  0.634E-02  0.569E-02  0.658E-02
 -13.678  0.170E-01  0.554E-02  0.500E-02  0.642E-02
 -13.578  0.155E-01  0.496E-02  0.434E-02  0.621E-02
 -13.478  0.143E-01  0.445E-02  0.390E-02  0.592E-02
 -13.378  0.133E-01  0.397E-02  0.368E-02  0.560E-02
 -13.278  0.121E-01  0.349E-02  0.349E-02  0.516E-02
 -13.178  0.105E-01  0.292E-02  0.310E-02  0.447E-02
 -13.078  0.854E-02  0.232E-02  0.258E-02  0.364E-02
 -12.978  0.711E-02  0.190E-02  0.218E-02  0.303E-02
 -12.878  0.646E-02  0.173E-02  0.200E-02  0.274E-02
 -12.778  0.587E-02  0.160E-02  0.180E-02  0.247E-02
 -12.678  0.466E-02  0.130E-02  0.140E-02  0.196E-02
 -12.578  0.297E-02  0.847E-03  0.879E-03  0.125E-02
 -12.478  0.148E-02  0.429E-03  0.428E-03  0.619E-03
 -12.378  0.565E-03  0.167E-03  0.161E-03  0.237E-03
 -12.278  0.166E-03  0.499E-04  0.463E-04  0.696E-04
 -12.178  0.373E-04  0.114E-04  0.102E-04  0.157E-04
 -12.078  0.642E-05  0.199E-05  0.174E-05  0.270E-05
 -11.978  0.847E-06  0.265E-06  0.225E-06  0.356E-06
 -11.878  0.855E-07  0.270E-07  0.224E-07  0.360E-07
 -11.778  0.659E-08  0.211E-08  0.171E-08  0.278E-08
 -11.678  0.389E-09  0.126E-09  0.996E-10  0.164E-09
 -11.578  0.176E-10  0.572E-11  0.445E-11  0.741E-11
 -11.478  0.607E-12  0.199E-12  0.152E-12  0.256E-12
 -11.378  0.157E-13  0.526E-14  0.388E-14  0.660E-14
 -11.278  0.000E+00  0.000E+00  0.000E+00  0.000E+00
 -11.178  0.000E+00  0.000E+00  0.000E+00  0.000E+00
 -11.078  0.000E+00  0.000E+00  0.000E+00  0.000E+00
 -10.978  0.000E+00  0.000E+00  0.000E+00  0.000E+00
 -10.878  0.000E+00  0.000E+00  0.000E+00  0.000E+00
 -10.778  0.000E+00  0.000E+00  0.000E+00  0.000E+00
 -10.678  0.000E+00  0.000E+00  0.000E+00  0.000E+00
 -10.578  0.000E+00  0.000E+00  0.000E+00  0.000E+00
 -10.478  0.000E+00  0.000E+00  0.000E+00  0.000E+00
 -10.378  0.000E+00  0.000E+00  0.000E+00  0.000E+00
 -10.278  0.000E+00  0.000E+00  0.000E+00  0.000E+00
 -10.178  0.000E+00  0.000E+00  0.000E+00  0.000E+00
 -10.078  0.000E+00  0.000E+00  0.000E+00  0.000E+00
  -9.978  0.000E+00  0.000E+00  0.000E+00  0.000E+00
  -9.878  0.000E+00  0.000E+00  0.000E+00  0.000E+00
  -9.778  0.000E+00  0.000E+00  0.000E+00  0.000E+00
  -9.678  0.000E+00  0.000E+00  0.000E+00  0.000E+00
  -9.578  0.000E+00  0.000E+00  0.000E+00  0.000E+00
  -9.478  0.000E+00  0.000E+00  0.000E+00  0.000E+00
  -9.378  0.000E+00  0.000E+00  0.000E+00  0.000E+00
  -9.278  0.000E+00  0.000E+00  0.000E+00  0.000E+00
  -9.178  0.000E+00  0.000E+00  0.000E+00  0.000E+00
  -9.078  0.000E+00  0.000E+00  0.000E+00  0.000E+00
  -8.978  0.000E+00  0.000E+00  0.000E+00  0.000E+00
  -8.878  0.350E-13  0.690E-16  0.344E-13  0.543E-15
  -8.778  0.184E-11  0.352E-14  0.176E-11  0.719E-13
  -8.678  0.598E-10  0.114E-12  0.571E-10  0.257E-11
  -8.578  0.149E-08  0.284E-11  0.142E-08  0.706E-10
  -8.478  0.286E-07  0.543E-10  0.270E-07  0.149E-08
  -8.378  0.420E-06  0.796E-09  0.395E-06  0.242E-07
  -8.278  0.475E-05  0.900E-08  0.444E-05  0.303E-06
  -8.178  0.413E-04  0.788E-07  0.383E-04  0.293E-05
  -8.078  0.277E-03  0.541E-06  0.254E-03  0.221E-04
  -7.978  0.144E-02  0.299E-05  0.130E-02  0.130E-03
  -7.878  0.577E-02  0.141E-04  0.515E-02  0.603E-03
  -7.778  0.181E-01  0.621E-04  0.158E-01  0.224E-02
  -7.678  0.451E-01  0.271E-03  0.380E-01  0.680E-02
  -7.578  0.907E-01  0.115E-02  0.724E-01  0.171E-01
  -7.478  0.153E+00  0.434E-02  0.112E+00  0.364E-01
  -7.378  0.230E+00  0.139E-01  0.149E+00  0.670E-01
  -7.278  0.326E+00  0.363E-01  0.181E+00  0.109E+00
  -7.178  0.455E+00  0.776E-01  0.215E+00  0.162E+00
  -7.078  0.618E+00  0.136E+00  0.256E+00  0.226E+00
  -6.978  0.795E+00  0.199E+00  0.300E+00  0.295E+00
  -6.878  0.941E+00  0.248E+00  0.333E+00  0.360E+00
  -6.778  0.102E+01  0.267E+00  0.343E+00  0.405E+00
  -6.678  0.100E+01  0.257E+00  0.323E+00  0.420E+00
  -6.578  0.908E+00  0.230E+00  0.277E+00  0.401E+00
  -6.478  0.776E+00  0.197E+00  0.222E+00  0.356E+00
  -6.378  0.647E+00  0.166E+00  0.178E+00  0.303E+00
  -6.278  0.545E+00  0.138E+00  0.154E+00  0.253E+00
  -6.178  0.480E+00  0.115E+00  0.151E+00  0.213E+00
  -6.078  0.449E+00  0.105E+00  0.159E+00  0.185E+00
  -5.978  0.452E+00  0.111E+00  0.173E+00  0.168E+00
  -5.878  0.489E+00  0.137E+00  0.188E+00  0.165E+00
  -5.778  0.561E+00  0.188E+00  0.199E+00  0.173E+00
  -5.678  0.660E+00  0.264E+00  0.206E+00  0.191E+00
  -5.578  0.767E+00  0.349E+00  0.209E+00  0.210E+00
  -5.478  0.842E+00  0.412E+00  0.210E+00  0.219E+00
  -5.378  0.848E+00  0.425E+00  0.208E+00  0.215E+00
  -5.278  0.789E+00  0.385E+00  0.201E+00  0.203E+00
  -5.178  0.705E+00  0.319E+00  0.190E+00  0.195E+00
  -5.078  0.646E+00  0.262E+00  0.187E+00  0.197E+00
  -4.978  0.636E+00  0.233E+00  0.197E+00  0.206E+00
  -4.878  0.673E+00  0.232E+00  0.223E+00  0.217E+00
  -4.778  0.732E+00  0.247E+00  0.258E+00  0.227E+00
  -4.678  0.783E+00  0.258E+00  0.288E+00  0.237E+00
  -4.578  0.800E+00  0.252E+00  0.302E+00  0.246E+00
  -4.478  0.776E+00  0.228E+00  0.299E+00  0.248E+00
  -4.378  0.714E+00  0.195E+00  0.281E+00  0.237E+00
  -4.278  0.631E+00  0.165E+00  0.252E+00  0.214E+00
  -4.178  0.546E+00  0.145E+00  0.219E+00  0.183E+00
  -4.078  0.486E+00  0.140E+00  0.192E+00  0.154E+00
  -3.978  0.464E+00  0.148E+00  0.180E+00  0.136E+00
  -3.878  0.484E+00  0.165E+00  0.183E+00  0.135E+00
  -3.778  0.532E+00  0.190E+00  0.192E+00  0.149E+00
  -3.678  0.595E+00  0.227E+00  0.197E+00  0.172E+00
  -3.578  0.660E+00  0.276E+00  0.192E+00  0.192E+00
  -3.478  0.717E+00  0.334E+00  0.180E+00  0.203E+00
  -3.378  0.757E+00  0.385E+00  0.166E+00  0.206E+00
  -3.278  0.773E+00  0.413E+00  0.156E+00  0.205E+00
  -3.178  0.768E+00  0.410E+00  0.155E+00  0.203E+00
  -3.078  0.746E+00  0.379E+00  0.165E+00  0.202E+00
  -2.978  0.713E+00  0.337E+00  0.182E+00  0.194E+00
  -2.878  0.675E+00  0.299E+00  0.198E+00  0.177E+00
  -2.778  0.633E+00  0.274E+00  0.205E+00  0.155E+00
  -2.678  0.590E+00  0.257E+00  0.199E+00  0.134E+00
  -2.578  0.545E+00  0.240E+00  0.184E+00  0.121E+00
  -2.478  0.500E+00  0.217E+00  0.162E+00  0.120E+00
  -2.378  0.457E+00  0.186E+00  0.141E+00  0.130E+00
  -2.278  0.422E+00  0.152E+00  0.124E+00  0.147E+00
  -2.178  0.404E+00  0.121E+00  0.117E+00  0.166E+00
  -2.078  0.408E+00  0.998E-01  0.127E+00  0.180E+00
  -1.978  0.420E+00  0.860E-01  0.151E+00  0.183E+00
  -1.878  0.412E+00  0.741E-01  0.172E+00  0.166E+00
  -1.778  0.359E+00  0.590E-01  0.171E+00  0.129E+00
  -1.678  0.268E+00  0.407E-01  0.142E+00  0.856E-01
  -1.578  0.172E+00  0.237E-01  0.984E-01  0.503E-01
  -1.478  0.102E+00  0.122E-01  0.598E-01  0.297E-01
  -1.378  0.646E-01  0.721E-02  0.357E-01  0.217E-01
  -1.278  0.540E-01  0.832E-02  0.244E-01  0.213E-01
  -1.178  0.609E-01  0.146E-01  0.210E-01  0.252E-01
  -1.078  0.770E-01  0.240E-01  0.216E-01  0.313E-01
  -0.978  0.925E-01  0.330E-01  0.230E-01  0.365E-01
  -0.878  0.987E-01  0.377E-01  0.233E-01  0.377E-01
  -0.778  0.935E-01  0.372E-01  0.221E-01  0.343E-01
  -0.678  0.811E-01  0.330E-01  0.201E-01  0.281E-01
  -0.578  0.661E-01  0.272E-01  0.177E-01  0.212E-01
  -0.478  0.503E-01  0.209E-01  0.145E-01  0.149E-01
  -0.378  0.345E-01  0.144E-01  0.106E-01  0.957E-02
  -0.278  0.204E-01  0.860E-02  0.639E-02  0.540E-02
  -0.178  0.995E-02  0.425E-02  0.312E-02  0.257E-02
  -0.078  0.392E-02  0.169E-02  0.121E-02  0.101E-02
   0.022  0.133E-02  0.540E-03  0.420E-03  0.369E-03
   0.122  0.101E-02  0.185E-03  0.410E-03  0.413E-03
   0.222  0.339E-02  0.304E-03  0.152E-02  0.157E-02
   0.322  0.123E-01  0.115E-02  0.549E-02  0.567E-02
   0.422  0.364E-01  0.387E-02  0.159E-01  0.166E-01
   0.522  0.873E-01  0.108E-01  0.373E-01  0.392E-01
   0.622  0.173E+00  0.250E-01  0.716E-01  0.765E-01
   0.722  0.289E+00  0.489E-01  0.115E+00  0.125E+00
   0.822  0.416E+00  0.811E-01  0.158E+00  0.176E+00
   0.922  0.523E+00  0.115E+00  0.191E+00  0.218E+00
   1.022  0.590E+00  0.140E+00  0.209E+00  0.241E+00
   1.122  0.611E+00  0.150E+00  0.216E+00  0.245E+00
   1.222  0.603E+00  0.145E+00  0.219E+00  0.239E+00
   1.322  0.583E+00  0.133E+00  0.218E+00  0.232E+00
   1.422  0.565E+00  0.123E+00  0.209E+00  0.234E+00
   1.522  0.558E+00  0.118E+00  0.195E+00  0.246E+00
   1.622  0.564E+00  0.118E+00  0.184E+00  0.263E+00
   1.722  0.573E+00  0.120E+00  0.183E+00  0.270E+00
   1.822  0.563E+00  0.122E+00  0.189E+00  0.253E+00
   1.922  0.515E+00  0.120E+00  0.188E+00  0.207E+00
   2.022  0.427E+00  0.113E+00  0.169E+00  0.145E+00
   2.122  0.316E+00  0.101E+00  0.130E+00  0.859E-01
   2.222  0.208E+00  0.826E-01  0.823E-01  0.431E-01
   2.322  0.120E+00  0.597E-01  0.423E-01  0.184E-01
   2.422  0.607E-01  0.365E-01  0.176E-01  0.664E-02
   2.522  0.262E-01  0.182E-01  0.597E-02  0.203E-02
   2.622  0.939E-02  0.720E-02  0.167E-02  0.525E-03
   2.722  0.274E-02  0.224E-02  0.388E-03  0.114E-03
   2.822  0.637E-03  0.542E-03  0.751E-04  0.204E-04
   2.922  0.116E-03  0.101E-03  0.121E-04  0.301E-05
   3.022  0.166E-04  0.146E-04  0.157E-05  0.360E-06
   3.122  0.182E-05  0.162E-05  0.164E-06  0.344E-07
