#  E (eV)   dos(E)     Int dos(E) EFermi =    0.000 eV
 -16.169  0.1653E-03  0.1653E-04
 -16.069  0.8947E-02  0.9113E-03
 -15.969  0.1709E+00  0.1800E-01
 -15.869  0.1186E+01  0.1366E+00
 -15.769  0.3204E+01  0.4570E+00
 -15.669  0.4066E+01  0.8637E+00
 -15.569  0.3859E+01  0.1250E+01
 -15.469  0.4161E+01  0.1666E+01
 -15.369  0.4500E+01  0.2116E+01
 -15.269  0.4351E+01  0.2551E+01
 -15.169  0.3259E+01  0.2877E+01
 -15.069  0.2796E+01  0.3156E+01
 -14.969  0.3764E+01  0.3533E+01
 -14.869  0.4658E+01  0.3999E+01
 -14.769  0.5617E+01  0.4560E+01
 -14.669  0.8452E+01  0.5405E+01
 -14.569  0.1269E+02  0.6674E+01
 -14.469  0.1452E+02  0.8127E+01
 -14.369  0.1361E+02  0.9488E+01
 -14.269  0.1406E+02  0.1089E+02
 -14.169  0.1509E+02  0.1240E+02
 -14.069  0.1680E+02  0.1408E+02
 -13.969  0.2072E+02  0.1615E+02
 -13.869  0.2026E+02  0.1818E+02
 -13.769  0.1693E+02  0.1987E+02
 -13.669  0.1977E+02  0.2185E+02
 -13.569  0.2372E+02  0.2422E+02
 -13.469  0.1728E+02  0.2595E+02
 -13.369  0.1524E+02  0.2747E+02
 -13.269  0.2102E+02  0.2958E+02
 -13.169  0.1713E+02  0.3129E+02
 -13.069  0.6465E+01  0.3194E+02
 -12.969  0.3806E+01  0.3232E+02
 -12.869  0.1130E+02  0.3345E+02
 -12.769  0.1588E+02  0.3503E+02
 -12.669  0.8099E+01  0.3584E+02
 -12.569  0.1470E+01  0.3599E+02
 -12.469  0.9370E-01  0.3600E+02
 -12.369  0.2075E-02  0.3600E+02
 -12.269  0.1586E-04  0.3600E+02
 -12.169  0.4166E-07  0.3600E+02
 -12.069  0.3748E-10  0.3600E+02
 -11.969  0.1153E-13  0.3600E+02
 -11.869  0.1211E-17  0.3600E+02
 -11.769  0.4345E-22  0.3600E+02
 -11.669  0.5316E-27  0.3600E+02
 -11.569  0.2218E-32  0.3600E+02
 -11.469  0.3155E-38  0.3600E+02
 -11.369  0.1530E-44  0.3600E+02
 -11.269  0.2529E-51  0.3600E+02
 -11.169  0.1424E-58  0.3600E+02
 -11.069  0.2732E-66  0.3600E+02
 -10.969  0.1786E-74  0.3600E+02
 -10.869  0.5106E-83  0.3600E+02
 -10.769  0.1148E-83  0.3600E+02
 -10.669  0.1148E-83  0.3600E+02
 -10.569  0.1148E-83  0.3600E+02
 -10.469  0.1148E-83  0.3600E+02
 -10.369  0.1148E-83  0.3600E+02
 -10.269  0.1148E-83  0.3600E+02
 -10.169  0.1148E-83  0.3600E+02
 -10.069  0.1148E-83  0.3600E+02
  -9.969  0.1148E-83  0.3600E+02
  -9.869  0.1148E-83  0.3600E+02
  -9.769  0.1148E-83  0.3600E+02
  -9.669  0.1148E-83  0.3600E+02
  -9.569  0.1148E-83  0.3600E+02
  -9.469  0.1148E-83  0.3600E+02
  -9.369  0.1156E-83  0.3600E+02
  -9.269  0.5455E-77  0.3600E+02
  -9.169  0.1033E-68  0.3600E+02
  -9.069  0.6649E-61  0.3600E+02
  -8.969  0.1456E-53  0.3600E+02
  -8.869  0.1085E-46  0.3600E+02
  -8.769  0.2750E-40  0.3600E+02
  -8.669  0.2374E-34  0.3600E+02
  -8.569  0.6983E-29  0.3600E+02
  -8.469  0.7001E-24  0.3600E+02
  -8.369  0.2396E-19  0.3600E+02
  -8.269  0.2802E-15  0.3600E+02
  -8.169  0.1122E-11  0.3600E+02
  -8.069  0.1546E-08  0.3600E+02
  -7.969  0.7359E-06  0.3600E+02
  -7.869  0.1222E-03  0.3600E+02
  -7.769  0.7182E-02  0.3600E+02
  -7.669  0.1527E+00  0.3602E+02
  -7.569  0.1218E+01  0.3614E+02
  -7.469  0.3910E+01  0.3653E+02
  -7.369  0.6375E+01  0.3717E+02
  -7.269  0.8881E+01  0.3805E+02
  -7.169  0.1270E+02  0.3932E+02
  -7.069  0.1742E+02  0.4107E+02
  -6.969  0.2299E+02  0.4337E+02
  -6.869  0.2652E+02  0.4602E+02
  -6.769  0.2831E+02  0.4885E+02
  -6.669  0.2738E+02  0.5159E+02
  -6.569  0.2295E+02  0.5388E+02
  -6.469  0.1917E+02  0.5580E+02
  -6.369  0.1866E+02  0.5767E+02
  -6.269  0.1736E+02  0.5940E+02
  -6.169  0.1314E+02  0.6072E+02
  -6.069  0.1014E+02  0.6173E+02
  -5.969  0.9302E+01  0.6266E+02
  -5.869  0.1061E+02  0.6372E+02
  -5.769  0.1283E+02  0.6500E+02
  -5.669  0.1550E+02  0.6656E+02
  -5.569  0.1925E+02  0.6848E+02
  -5.469  0.2320E+02  0.7080E+02
  -5.369  0.2588E+02  0.7339E+02
  -5.269  0.2458E+02  0.7585E+02
  -5.169  0.2138E+02  0.7798E+02
  -5.069  0.1959E+02  0.7994E+02
  -4.969  0.1982E+02  0.8192E+02
  -4.869  0.2370E+02  0.8429E+02
  -4.769  0.3156E+02  0.8745E+02
  -4.669  0.3415E+02  0.9086E+02
  -4.569  0.2961E+02  0.9382E+02
  -4.469  0.2570E+02  0.9639E+02
  -4.369  0.2218E+02  0.9861E+02
  -4.269  0.1735E+02  0.1003E+03
  -4.169  0.1407E+02  0.1018E+03
  -4.069  0.1228E+02  0.1030E+03
  -3.969  0.1260E+02  0.1042E+03
  -3.869  0.1548E+02  0.1058E+03
  -3.769  0.1853E+02  0.1076E+03
  -3.669  0.1819E+02  0.1095E+03
  -3.569  0.1843E+02  0.1113E+03
  -3.469  0.2202E+02  0.1135E+03
  -3.369  0.2475E+02  0.1160E+03
  -3.269  0.2349E+02  0.1183E+03
  -3.169  0.2229E+02  0.1206E+03
  -3.069  0.2519E+02  0.1231E+03
  -2.969  0.2698E+02  0.1258E+03
  -2.869  0.2561E+02  0.1283E+03
  -2.769  0.2249E+02  0.1306E+03
  -2.669  0.2078E+02  0.1327E+03
  -2.569  0.2104E+02  0.1348E+03
  -2.469  0.2225E+02  0.1370E+03
  -2.369  0.2205E+02  0.1392E+03
  -2.269  0.1945E+02  0.1411E+03
  -2.169  0.1757E+02  0.1429E+03
  -2.069  0.1698E+02  0.1446E+03
  -1.969  0.1976E+02  0.1466E+03
  -1.869  0.2483E+02  0.1491E+03
  -1.769  0.1989E+02  0.1510E+03
  -1.669  0.8584E+01  0.1519E+03
  -1.569  0.3542E+01  0.1523E+03
  -1.469  0.3279E+01  0.1526E+03
  -1.369  0.2657E+01  0.1529E+03
  -1.269  0.1966E+01  0.1530E+03
  -1.169  0.2509E+01  0.1533E+03
  -1.069  0.5455E+01  0.1538E+03
  -0.969  0.9900E+01  0.1548E+03
  -0.869  0.1203E+02  0.1560E+03
  -0.769  0.1290E+02  0.1573E+03
  -0.669  0.1344E+02  0.1587E+03
  -0.569  0.1224E+02  0.1599E+03
  -0.469  0.1178E+02  0.1611E+03
  -0.369  0.7281E+01  0.1618E+03
  -0.269  0.1820E+01  0.1620E+03
  -0.169  0.1640E+00  0.1620E+03
  -0.069  0.5198E-02  0.1620E+03
   0.031  0.5740E-04  0.1620E+03
   0.131  0.1066E-05  0.1620E+03
   0.231  0.1311E-03  0.1620E+03
   0.331  0.7459E-02  0.1620E+03
   0.431  0.1656E+00  0.1620E+03
   0.531  0.1556E+01  0.1622E+03
   0.631  0.6708E+01  0.1628E+03
   0.731  0.1462E+02  0.1643E+03
   0.831  0.2034E+02  0.1663E+03
   0.931  0.2485E+02  0.1688E+03
   1.031  0.2836E+02  0.1717E+03
   1.131  0.2996E+02  0.1747E+03
   1.231  0.3150E+02  0.1778E+03
   1.331  0.3167E+02  0.1810E+03
   1.431  0.2693E+02  0.1837E+03
   1.531  0.2213E+02  0.1859E+03
   1.631  0.2282E+02  0.1882E+03
   1.731  0.2735E+02  0.1909E+03
   1.831  0.2943E+02  0.1938E+03
   1.931  0.2568E+02  0.1964E+03
   2.031  0.1827E+02  0.1982E+03
   2.131  0.1004E+02  0.1992E+03
   2.231  0.4977E+01  0.1997E+03
   2.331  0.2109E+01  0.1999E+03
   2.431  0.4661E+00  0.2000E+03
   2.531  0.4109E-01  0.2000E+03
   2.631  0.1328E-02  0.2000E+03
