# E (eV)   ldos(E)   pdos(E)    pdos(E)    pdos(E)    pdos(E)    pdos(E)    pdos(E)    pdos(E)   
 -16.578  0.172E-07  0.808E-10  0.254E-09  0.113E-09  0.134E-10  0.342E-10  0.205E-10  0.167E-07
 -16.478  0.145E-06  0.678E-09  0.216E-08  0.101E-08  0.113E-09  0.288E-09  0.172E-09  0.140E-06
 -16.378  0.934E-06  0.438E-08  0.142E-07  0.700E-08  0.737E-09  0.186E-08  0.111E-08  0.905E-06
 -16.278  0.466E-05  0.218E-07  0.726E-07  0.381E-07  0.371E-08  0.928E-08  0.551E-08  0.451E-05
 -16.178  0.180E-04  0.841E-07  0.289E-06  0.163E-06  0.145E-07  0.359E-07  0.211E-07  0.174E-04
 -16.078  0.540E-04  0.252E-06  0.907E-06  0.556E-06  0.442E-07  0.108E-06  0.629E-07  0.521E-04
 -15.978  0.128E-03  0.594E-06  0.228E-05  0.154E-05  0.107E-06  0.255E-06  0.146E-06  0.123E-03
 -15.878  0.240E-03  0.111E-05  0.472E-05  0.358E-05  0.209E-06  0.482E-06  0.270E-06  0.230E-03
 -15.778  0.370E-03  0.170E-05  0.831E-05  0.725E-05  0.337E-06  0.742E-06  0.403E-06  0.351E-03
 -15.678  0.479E-03  0.218E-05  0.130E-04  0.134E-04  0.465E-06  0.959E-06  0.505E-06  0.449E-03
 -15.578  0.545E-03  0.242E-05  0.189E-04  0.229E-04  0.571E-06  0.108E-05  0.566E-06  0.498E-03
 -15.478  0.561E-03  0.241E-05  0.256E-04  0.360E-04  0.640E-06  0.109E-05  0.605E-06  0.495E-03
 -15.378  0.540E-03  0.223E-05  0.324E-04  0.504E-04  0.671E-06  0.103E-05  0.648E-06  0.453E-03
 -15.278  0.502E-03  0.206E-05  0.384E-04  0.621E-04  0.681E-06  0.103E-05  0.712E-06  0.397E-03
 -15.178  0.480E-03  0.248E-05  0.439E-04  0.694E-04  0.739E-06  0.126E-05  0.821E-06  0.361E-03
 -15.078  0.504E-03  0.531E-05  0.509E-04  0.753E-04  0.108E-05  0.210E-05  0.996E-06  0.368E-03
 -14.978  0.594E-03  0.158E-04  0.619E-04  0.863E-04  0.245E-05  0.452E-05  0.121E-05  0.422E-03
 -14.878  0.754E-03  0.443E-04  0.776E-04  0.107E-03  0.704E-05  0.109E-04  0.141E-05  0.505E-03
 -14.778  0.977E-03  0.103E-03  0.961E-04  0.137E-03  0.197E-04  0.253E-04  0.152E-05  0.593E-03
 -14.678  0.124E-02  0.195E-03  0.113E-03  0.170E-03  0.486E-04  0.525E-04  0.158E-05  0.655E-03
 -14.578  0.149E-02  0.297E-03  0.125E-03  0.201E-03  0.103E-03  0.953E-04  0.170E-05  0.666E-03
 -14.478  0.171E-02  0.375E-03  0.137E-03  0.235E-03  0.189E-03  0.152E-03  0.201E-05  0.625E-03
 -14.378  0.194E-02  0.410E-03  0.160E-03  0.293E-03  0.298E-03  0.218E-03  0.256E-05  0.559E-03
 -14.278  0.222E-02  0.422E-03  0.206E-03  0.395E-03  0.417E-03  0.289E-03  0.334E-05  0.489E-03
 -14.178  0.259E-02  0.452E-03  0.273E-03  0.532E-03  0.540E-03  0.368E-03  0.431E-05  0.416E-03
 -14.078  0.300E-02  0.515E-03  0.347E-03  0.658E-03  0.682E-03  0.460E-03  0.523E-05  0.331E-03
 -13.978  0.339E-02  0.582E-03  0.411E-03  0.710E-03  0.883E-03  0.563E-03  0.573E-05  0.239E-03
 -13.878  0.377E-02  0.603E-03  0.458E-03  0.657E-03  0.120E-02  0.682E-03  0.549E-05  0.159E-03
 -13.778  0.420E-02  0.557E-03  0.496E-03  0.535E-03  0.167E-02  0.831E-03  0.462E-05  0.107E-03
 -13.678  0.472E-02  0.461E-03  0.531E-03  0.413E-03  0.220E-02  0.102E-02  0.369E-05  0.885E-04
 -13.578  0.512E-02  0.346E-03  0.582E-03  0.339E-03  0.253E-02  0.121E-02  0.323E-05  0.106E-03
 -13.478  0.518E-02  0.236E-03  0.679E-03  0.320E-03  0.245E-02  0.134E-02  0.345E-05  0.154E-03
 -13.378  0.487E-02  0.146E-03  0.828E-03  0.340E-03  0.199E-02  0.135E-02  0.409E-05  0.214E-03
 -13.278  0.430E-02  0.888E-04  0.952E-03  0.362E-03  0.139E-02  0.125E-02  0.456E-05  0.249E-03
 -13.178  0.361E-02  0.682E-04  0.933E-03  0.343E-03  0.898E-03  0.113E-02  0.431E-05  0.234E-03
 -13.078  0.308E-02  0.857E-04  0.737E-03  0.268E-03  0.616E-03  0.119E-02  0.334E-05  0.174E-03
 -12.978  0.296E-02  0.134E-03  0.458E-03  0.167E-03  0.547E-03  0.155E-02  0.216E-05  0.102E-03
 -12.878  0.317E-02  0.186E-03  0.224E-03  0.830E-04  0.594E-03  0.203E-02  0.127E-05  0.484E-04
 -12.778  0.320E-02  0.206E-03  0.885E-04  0.342E-04  0.612E-03  0.224E-02  0.763E-06  0.195E-04
 -12.678  0.269E-02  0.176E-03  0.303E-04  0.129E-04  0.517E-03  0.195E-02  0.481E-06  0.749E-05
 -12.578  0.177E-02  0.116E-03  0.101E-04  0.495E-05  0.340E-03  0.130E-02  0.283E-06  0.299E-05
 -12.478  0.904E-03  0.582E-04  0.345E-05  0.193E-05  0.172E-03  0.666E-03  0.139E-06  0.119E-05
 -12.378  0.353E-03  0.225E-04  0.113E-05  0.680E-06  0.669E-04  0.261E-03  0.534E-07  0.420E-06
 -12.278  0.105E-03  0.663E-05  0.317E-06  0.197E-06  0.198E-04  0.783E-04  0.159E-07  0.120E-06
 -12.178  0.241E-04  0.150E-05  0.706E-07  0.447E-07  0.450E-05  0.180E-04  0.363E-08  0.266E-07
 -12.078  0.421E-05  0.260E-06  0.122E-07  0.781E-08  0.782E-06  0.315E-05  0.635E-09  0.457E-08
 -11.978  0.563E-06  0.344E-07  0.162E-08  0.105E-08  0.104E-06  0.422E-06  0.849E-10  0.600E-09
 -11.878  0.575E-07  0.348E-08  0.165E-09  0.107E-09  0.105E-07  0.432E-07  0.868E-11  0.604E-10
 -11.778  0.449E-08  0.270E-09  0.128E-10  0.840E-11  0.815E-09  0.338E-08  0.678E-12  0.465E-11
 -11.678  0.268E-09  0.160E-10  0.763E-12  0.503E-12  0.483E-10  0.202E-09  0.405E-13  0.274E-12
 -11.578  0.122E-10  0.723E-12  0.347E-13  0.230E-13  0.219E-11  0.920E-11  0.185E-14  0.124E-13
 -11.478  0.424E-12  0.250E-13  0.120E-14  0.801E-15  0.756E-13  0.321E-12  0.643E-16  0.425E-15
 -11.378  0.112E-13  0.652E-15  0.316E-16  0.212E-16  0.198E-14  0.848E-14  0.170E-17  0.110E-16
 -11.278  0.000E+00  0.000E+00  0.000E+00  0.000E+00  0.000E+00  0.000E+00  0.000E+00  0.000E+00
 -11.178  0.000E+00  0.000E+00  0.000E+00  0.000E+00  0.000E+00  0.000E+00  0.000E+00  0.000E+00
 -11.078  0.000E+00  0.000E+00  0.000E+00  0.000E+00  0.000E+00  0.000E+00  0.000E+00  0.000E+00
 -10.978  0.000E+00  0.000E+00  0.000E+00  0.000E+00  0.000E+00  0.000E+00  0.000E+00  0.000E+00
 -10.878  0.000E+00  0.000E+00  0.000E+00  0.000E+00  0.000E+00  0.000E+00  0.000E+00  0.000E+00
 -10.778  0.000E+00  0.000E+00  0.000E+00  0.000E+00  0.000E+00  0.000E+00  0.000E+00  0.000E+00
 -10.678  0.000E+00  0.000E+00  0.000E+00  0.000E+00  0.000E+00  0.000E+00  0.000E+00  0.000E+00
 -10.578  0.000E+00  0.000E+00  0.000E+00  0.000E+00  0.000E+00  0.000E+00  0.000E+00  0.000E+00
 -10.478  0.000E+00  0.000E+00  0.000E+00  0.000E+00  0.000E+00  0.000E+00  0.000E+00  0.000E+00
 -10.378  0.000E+00  0.000E+00  0.000E+00  0.000E+00  0.000E+00  0.000E+00  0.000E+00  0.000E+00
 -10.278  0.000E+00  0.000E+00  0.000E+00  0.000E+00  0.000E+00  0.000E+00  0.000E+00  0.000E+00
 -10.178  0.000E+00  0.000E+00  0.000E+00  0.000E+00  0.000E+00  0.000E+00  0.000E+00  0.000E+00
 -10.078  0.000E+00  0.000E+00  0.000E+00  0.000E+00  0.000E+00  0.000E+00  0.000E+00  0.000E+00
  -9.978  0.000E+00  0.000E+00  0.000E+00  0.000E+00  0.000E+00  0.000E+00  0.000E+00  0.000E+00
  -9.878  0.000E+00  0.000E+00  0.000E+00  0.000E+00  0.000E+00  0.000E+00  0.000E+00  0.000E+00
  -9.778  0.000E+00  0.000E+00  0.000E+00  0.000E+00  0.000E+00  0.000E+00  0.000E+00  0.000E+00
  -9.678  0.000E+00  0.000E+00  0.000E+00  0.000E+00  0.000E+00  0.000E+00  0.000E+00  0.000E+00
  -9.578  0.000E+00  0.000E+00  0.000E+00  0.000E+00  0.000E+00  0.000E+00  0.000E+00  0.000E+00
  -9.478  0.000E+00  0.000E+00  0.000E+00  0.000E+00  0.000E+00  0.000E+00  0.000E+00  0.000E+00
  -9.378  0.000E+00  0.000E+00  0.000E+00  0.000E+00  0.000E+00  0.000E+00  0.000E+00  0.000E+00
  -9.278  0.000E+00  0.000E+00  0.000E+00  0.000E+00  0.000E+00  0.000E+00  0.000E+00  0.000E+00
  -9.178  0.000E+00  0.000E+00  0.000E+00  0.000E+00  0.000E+00  0.000E+00  0.000E+00  0.000E+00
  -9.078  0.000E+00  0.000E+00  0.000E+00  0.000E+00  0.000E+00  0.000E+00  0.000E+00  0.000E+00
  -8.978  0.000E+00  0.000E+00  0.000E+00  0.000E+00  0.000E+00  0.000E+00  0.000E+00  0.000E+00
  -8.878  0.904E-16  0.599E-18  0.855E-16  0.144E-18  0.483E-19  0.947E-20  0.680E-18  0.349E-17
  -8.778  0.470E-14  0.310E-16  0.426E-14  0.119E-15  0.261E-17  0.639E-18  0.898E-16  0.198E-15
  -8.678  0.153E-12  0.101E-14  0.138E-12  0.452E-14  0.856E-16  0.218E-16  0.317E-14  0.651E-14
  -8.578  0.382E-11  0.252E-13  0.341E-11  0.130E-12  0.215E-14  0.567E-15  0.857E-13  0.166E-12
  -8.478  0.731E-10  0.482E-12  0.647E-10  0.286E-11  0.415E-13  0.114E-13  0.178E-11  0.323E-11
  -8.378  0.108E-08  0.708E-11  0.942E-09  0.483E-10  0.617E-12  0.176E-12  0.284E-10  0.487E-10
  -8.278  0.122E-07  0.800E-10  0.105E-07  0.628E-09  0.706E-11  0.211E-11  0.347E-09  0.569E-09
  -8.178  0.106E-06  0.696E-09  0.906E-07  0.629E-08  0.625E-10  0.196E-10  0.327E-08  0.518E-08
  -8.078  0.715E-06  0.466E-08  0.600E-06  0.488E-07  0.429E-09  0.142E-09  0.237E-07  0.373E-07
  -7.978  0.373E-05  0.241E-07  0.306E-05  0.295E-06  0.230E-08  0.817E-09  0.133E-06  0.215E-06
  -7.878  0.152E-04  0.968E-07  0.121E-04  0.140E-05  0.977E-08  0.388E-08  0.581E-06  0.101E-05
  -7.778  0.489E-04  0.302E-06  0.373E-04  0.533E-05  0.340E-07  0.166E-07  0.201E-05  0.396E-05
  -7.678  0.126E-03  0.739E-06  0.898E-04  0.164E-04  0.103E-06  0.721E-07  0.559E-05  0.132E-04
  -7.578  0.266E-03  0.144E-05  0.172E-03  0.417E-04  0.302E-06  0.328E-06  0.130E-04  0.377E-04
  -7.478  0.477E-03  0.228E-05  0.265E-03  0.893E-04  0.929E-06  0.143E-05  0.259E-04  0.928E-04
  -7.378  0.754E-03  0.308E-05  0.337E-03  0.164E-03  0.292E-05  0.534E-05  0.461E-04  0.196E-03
  -7.278  0.108E-02  0.374E-05  0.367E-03  0.261E-03  0.858E-05  0.164E-04  0.735E-04  0.353E-03
  -7.178  0.144E-02  0.435E-05  0.360E-03  0.365E-03  0.220E-04  0.407E-04  0.105E-03  0.545E-03
  -7.078  0.179E-02  0.494E-05  0.339E-03  0.456E-03  0.485E-04  0.821E-04  0.135E-03  0.725E-03
  -6.978  0.208E-02  0.542E-05  0.328E-03  0.517E-03  0.917E-04  0.136E-03  0.158E-03  0.846E-03
  -6.878  0.229E-02  0.563E-05  0.335E-03  0.539E-03  0.151E-03  0.191E-03  0.173E-03  0.896E-03
  -6.778  0.242E-02  0.559E-05  0.349E-03  0.519E-03  0.224E-03  0.237E-03  0.181E-03  0.907E-03
  -6.678  0.250E-02  0.547E-05  0.349E-03  0.467E-03  0.304E-03  0.282E-03  0.181E-03  0.913E-03
  -6.578  0.257E-02  0.557E-05  0.321E-03  0.408E-03  0.393E-03  0.351E-03  0.176E-03  0.912E-03
  -6.478  0.264E-02  0.642E-05  0.269E-03  0.363E-03  0.496E-03  0.469E-03  0.169E-03  0.868E-03
  -6.378  0.272E-02  0.878E-05  0.208E-03  0.339E-03  0.622E-03  0.630E-03  0.164E-03  0.749E-03
  -6.278  0.280E-02  0.140E-04  0.154E-03  0.318E-03  0.776E-03  0.805E-03  0.162E-03  0.567E-03
  -6.178  0.286E-02  0.241E-04  0.118E-03  0.286E-03  0.940E-03  0.961E-03  0.158E-03  0.368E-03
  -6.078  0.292E-02  0.414E-04  0.104E-03  0.255E-03  0.107E-02  0.109E-02  0.151E-03  0.206E-03
  -5.978  0.300E-02  0.659E-04  0.115E-03  0.255E-03  0.113E-02  0.119E-02  0.143E-03  0.110E-03
  -5.878  0.312E-02  0.928E-04  0.153E-03  0.310E-03  0.110E-02  0.125E-02  0.140E-03  0.777E-04
  -5.778  0.326E-02  0.115E-03  0.227E-03  0.423E-03  0.101E-02  0.125E-02  0.149E-03  0.931E-04
  -5.678  0.346E-02  0.128E-03  0.349E-03  0.575E-03  0.910E-03  0.118E-02  0.173E-03  0.140E-03
  -5.578  0.373E-02  0.135E-03  0.526E-03  0.732E-03  0.858E-03  0.108E-02  0.206E-03  0.202E-03
  -5.478  0.408E-02  0.143E-03  0.741E-03  0.851E-03  0.870E-03  0.973E-03  0.242E-03  0.263E-03
  -5.378  0.442E-02  0.155E-03  0.942E-03  0.900E-03  0.931E-03  0.907E-03  0.283E-03  0.306E-03
  -5.278  0.467E-02  0.180E-03  0.107E-02  0.878E-03  0.102E-02  0.876E-03  0.333E-03  0.322E-03
  -5.178  0.483E-02  0.230E-03  0.109E-02  0.820E-03  0.112E-02  0.880E-03  0.386E-03  0.316E-03
  -5.078  0.504E-02  0.324E-03  0.102E-02  0.783E-03  0.125E-02  0.937E-03  0.421E-03  0.299E-03
  -4.978  0.544E-02  0.467E-03  0.957E-03  0.814E-03  0.142E-02  0.108E-02  0.426E-03  0.279E-03
  -4.878  0.608E-02  0.633E-03  0.949E-03  0.912E-03  0.160E-02  0.132E-02  0.403E-03  0.261E-03
  -4.778  0.672E-02  0.779E-03  0.994E-03  0.101E-02  0.169E-02  0.163E-02  0.368E-03  0.245E-03
  -4.678  0.703E-02  0.867E-03  0.101E-02  0.100E-02  0.166E-02  0.193E-02  0.331E-03  0.231E-03
  -4.578  0.685E-02  0.893E-03  0.938E-03  0.870E-03  0.153E-02  0.210E-02  0.298E-03  0.223E-03
  -4.478  0.623E-02  0.869E-03  0.786E-03  0.682E-03  0.136E-02  0.204E-02  0.275E-03  0.223E-03
  -4.378  0.544E-02  0.812E-03  0.631E-03  0.537E-03  0.121E-02  0.175E-02  0.276E-03  0.227E-03
  -4.278  0.474E-02  0.740E-03  0.545E-03  0.498E-03  0.108E-02  0.133E-02  0.315E-03  0.229E-03
  -4.178  0.436E-02  0.669E-03  0.549E-03  0.576E-03  0.994E-03  0.944E-03  0.401E-03  0.224E-03
  -4.078  0.436E-02  0.611E-03  0.616E-03  0.731E-03  0.958E-03  0.700E-03  0.528E-03  0.215E-03
  -3.978  0.469E-02  0.573E-03  0.691E-03  0.896E-03  0.101E-02  0.648E-03  0.676E-03  0.201E-03
  -3.878  0.527E-02  0.561E-03  0.727E-03  0.100E-02  0.118E-02  0.797E-03  0.826E-03  0.182E-03
  -3.778  0.610E-02  0.599E-03  0.714E-03  0.102E-02  0.150E-02  0.113E-02  0.965E-03  0.163E-03
  -3.678  0.721E-02  0.721E-03  0.683E-03  0.964E-03  0.200E-02  0.161E-02  0.107E-02  0.153E-03
  -3.578  0.850E-02  0.929E-03  0.668E-03  0.879E-03  0.264E-02  0.211E-02  0.111E-02  0.160E-03
  -3.478  0.961E-02  0.116E-02  0.688E-03  0.817E-03  0.320E-02  0.247E-02  0.110E-02  0.184E-03
  -3.378  0.102E-01  0.132E-02  0.771E-03  0.808E-03  0.343E-02  0.258E-02  0.110E-02  0.222E-03
  -3.278  0.104E-01  0.139E-02  0.963E-03  0.867E-03  0.321E-02  0.252E-02  0.121E-02  0.267E-03
  -3.178  0.106E-01  0.143E-02  0.131E-02  0.991E-03  0.268E-02  0.239E-02  0.149E-02  0.310E-03
  -3.078  0.111E-01  0.154E-02  0.178E-02  0.116E-02  0.212E-02  0.227E-02  0.187E-02  0.341E-03
  -2.978  0.117E-01  0.174E-02  0.225E-02  0.132E-02  0.170E-02  0.213E-02  0.223E-02  0.351E-03
  -2.878  0.122E-01  0.200E-02  0.255E-02  0.142E-02  0.150E-02  0.198E-02  0.244E-02  0.345E-03
  -2.778  0.124E-01  0.229E-02  0.263E-02  0.141E-02  0.148E-02  0.183E-02  0.243E-02  0.347E-03
  -2.678  0.124E-01  0.258E-02  0.254E-02  0.135E-02  0.156E-02  0.172E-02  0.222E-02  0.385E-03
  -2.578  0.121E-01  0.279E-02  0.237E-02  0.133E-02  0.162E-02  0.162E-02  0.191E-02  0.468E-03
  -2.478  0.117E-01  0.279E-02  0.219E-02  0.143E-02  0.160E-02  0.147E-02  0.166E-02  0.576E-03
  -2.378  0.111E-01  0.249E-02  0.201E-02  0.164E-02  0.144E-02  0.122E-02  0.158E-02  0.672E-03
  -2.278  0.102E-01  0.195E-02  0.191E-02  0.188E-02  0.120E-02  0.881E-03  0.169E-02  0.737E-03
  -2.178  0.959E-02  0.136E-02  0.202E-02  0.207E-02  0.932E-03  0.556E-03  0.188E-02  0.775E-03
  -2.078  0.936E-02  0.878E-03  0.242E-02  0.218E-02  0.724E-03  0.320E-03  0.204E-02  0.805E-03
  -1.978  0.949E-02  0.581E-03  0.303E-02  0.220E-02  0.616E-03  0.192E-03  0.205E-02  0.819E-03
  -1.878  0.943E-02  0.438E-03  0.354E-02  0.204E-02  0.632E-03  0.141E-03  0.186E-02  0.778E-03
  -1.778  0.864E-02  0.405E-03  0.351E-02  0.166E-02  0.807E-03  0.132E-03  0.147E-02  0.650E-03
  -1.678  0.719E-02  0.453E-03  0.283E-02  0.115E-02  0.116E-02  0.148E-03  0.986E-03  0.456E-03
  -1.578  0.565E-02  0.550E-03  0.183E-02  0.691E-03  0.159E-02  0.178E-03  0.553E-03  0.263E-03
  -1.478  0.452E-02  0.644E-03  0.936E-03  0.392E-03  0.194E-02  0.205E-03  0.273E-03  0.126E-03
  -1.378  0.385E-02  0.693E-03  0.392E-03  0.273E-03  0.206E-02  0.214E-03  0.166E-03  0.564E-04
  -1.278  0.364E-02  0.705E-03  0.158E-03  0.317E-03  0.200E-02  0.208E-03  0.215E-03  0.376E-04
  -1.178  0.395E-02  0.722E-03  0.103E-03  0.517E-03  0.195E-02  0.208E-03  0.408E-03  0.509E-04
  -1.078  0.475E-02  0.761E-03  0.131E-03  0.846E-03  0.196E-02  0.226E-03  0.732E-03  0.872E-04
  -0.978  0.573E-02  0.789E-03  0.198E-03  0.123E-02  0.196E-02  0.248E-03  0.116E-02  0.141E-03
  -0.878  0.656E-02  0.752E-03  0.280E-03  0.163E-02  0.182E-02  0.252E-03  0.162E-02  0.203E-03
  -0.778  0.709E-02  0.639E-03  0.356E-03  0.209E-02  0.151E-02  0.227E-03  0.202E-02  0.258E-03
  -0.678  0.734E-02  0.487E-03  0.408E-03  0.264E-02  0.112E-02  0.180E-03  0.222E-02  0.286E-03
  -0.578  0.719E-02  0.344E-03  0.421E-03  0.314E-02  0.763E-03  0.130E-03  0.212E-02  0.271E-03
  -0.478  0.640E-02  0.229E-03  0.385E-03  0.326E-02  0.484E-03  0.862E-04  0.173E-02  0.217E-03
  -0.378  0.492E-02  0.141E-03  0.303E-03  0.280E-02  0.282E-03  0.524E-04  0.120E-02  0.147E-03
  -0.278  0.313E-02  0.761E-04  0.197E-03  0.191E-02  0.145E-03  0.282E-04  0.692E-03  0.825E-04
  -0.178  0.160E-02  0.345E-04  0.103E-03  0.102E-02  0.631E-04  0.129E-04  0.329E-03  0.380E-04
  -0.078  0.646E-03  0.127E-04  0.428E-04  0.422E-03  0.225E-04  0.485E-05  0.127E-03  0.142E-04
   0.022  0.208E-03  0.371E-05  0.149E-04  0.135E-03  0.644E-05  0.147E-05  0.421E-04  0.436E-05
   0.122  0.804E-04  0.869E-06  0.108E-04  0.368E-04  0.147E-05  0.405E-06  0.282E-04  0.184E-05
   0.222  0.148E-03  0.249E-06  0.365E-04  0.259E-04  0.355E-06  0.366E-06  0.813E-04  0.357E-05
   0.322  0.490E-03  0.355E-06  0.136E-03  0.804E-04  0.437E-06  0.122E-05  0.260E-03  0.105E-04
   0.422  0.136E-02  0.925E-06  0.410E-03  0.254E-03  0.131E-05  0.387E-05  0.664E-03  0.261E-04
   0.522  0.305E-02  0.213E-05  0.992E-03  0.653E-03  0.344E-05  0.102E-04  0.134E-02  0.532E-04
   0.622  0.559E-02  0.428E-05  0.196E-02  0.137E-02  0.759E-05  0.226E-04  0.214E-02  0.930E-04
   0.722  0.858E-02  0.801E-05  0.321E-02  0.237E-02  0.147E-04  0.454E-04  0.278E-02  0.146E-03
   0.822  0.114E-01  0.152E-04  0.448E-02  0.352E-02  0.279E-04  0.898E-04  0.305E-02  0.215E-03
   0.922  0.136E-01  0.310E-04  0.543E-02  0.458E-02  0.583E-04  0.187E-03  0.299E-02  0.298E-03
   1.022  0.149E-01  0.665E-04  0.580E-02  0.537E-02  0.134E-03  0.399E-03  0.278E-02  0.387E-03
   1.122  0.156E-01  0.138E-03  0.560E-02  0.575E-02  0.303E-03  0.804E-03  0.252E-02  0.461E-03
   1.222  0.156E-01  0.260E-03  0.498E-02  0.564E-02  0.610E-03  0.144E-02  0.216E-02  0.498E-03
   1.322  0.153E-01  0.429E-03  0.420E-02  0.511E-02  0.107E-02  0.228E-02  0.167E-02  0.487E-03
   1.422  0.149E-01  0.622E-03  0.347E-02  0.440E-02  0.163E-02  0.321E-02  0.115E-02  0.432E-03
   1.522  0.148E-01  0.793E-03  0.288E-02  0.377E-02  0.222E-02  0.406E-02  0.718E-03  0.361E-03
   1.622  0.148E-01  0.908E-03  0.245E-02  0.334E-02  0.273E-02  0.466E-02  0.451E-03  0.304E-03
   1.722  0.146E-01  0.958E-03  0.212E-02  0.302E-02  0.304E-02  0.485E-02  0.324E-03  0.272E-03
   1.822  0.137E-01  0.971E-03  0.182E-02  0.265E-02  0.310E-02  0.461E-02  0.268E-03  0.250E-03
   1.922  0.120E-01  0.984E-03  0.148E-02  0.215E-02  0.295E-02  0.402E-02  0.223E-03  0.217E-03
   2.022  0.992E-02  0.100E-02  0.110E-02  0.155E-02  0.266E-02  0.326E-02  0.169E-03  0.167E-03
   2.122  0.762E-02  0.993E-03  0.724E-03  0.984E-03  0.227E-02  0.243E-02  0.110E-03  0.112E-03
   2.222  0.538E-02  0.892E-03  0.416E-03  0.536E-03  0.177E-02  0.164E-02  0.599E-04  0.645E-04
   2.322  0.339E-02  0.686E-03  0.208E-03  0.248E-03  0.122E-02  0.974E-03  0.271E-04  0.326E-04
   2.422  0.185E-02  0.433E-03  0.910E-04  0.969E-04  0.708E-03  0.497E-03  0.101E-04  0.146E-04
   2.522  0.845E-03  0.219E-03  0.348E-04  0.321E-04  0.337E-03  0.213E-03  0.315E-05  0.573E-05
   2.622  0.315E-03  0.873E-04  0.115E-04  0.900E-05  0.129E-03  0.752E-04  0.825E-06  0.194E-05
   2.722  0.935E-04  0.272E-04  0.317E-05  0.214E-05  0.388E-04  0.215E-04  0.183E-06  0.545E-06
   2.822  0.219E-04  0.658E-05  0.718E-06  0.428E-06  0.912E-05  0.488E-05  0.346E-07  0.124E-06
   2.922  0.400E-05  0.123E-05  0.130E-06  0.703E-07  0.166E-05  0.873E-06  0.546E-08  0.225E-07
   3.022  0.566E-06  0.177E-06  0.184E-07  0.933E-08  0.235E-06  0.122E-06  0.706E-09  0.318E-08
   3.122  0.618E-07  0.197E-07  0.204E-08  0.981E-09  0.255E-07  0.132E-07  0.731E-10  0.349E-09
