# E (eV)   ldos(E)   pdos(E)    pdos(E)    pdos(E)   
 -16.578  0.152E-06  0.144E-06  0.185E-08  0.547E-08
 -16.478  0.128E-05  0.121E-05  0.172E-07  0.511E-07
 -16.378  0.833E-05  0.784E-05  0.124E-06  0.372E-06
 -16.278  0.419E-04  0.391E-04  0.698E-06  0.212E-05
 -16.178  0.163E-03  0.151E-03  0.308E-05  0.953E-05
 -16.078  0.498E-03  0.453E-03  0.107E-04  0.341E-04
 -15.978  0.120E-02  0.107E-02  0.299E-04  0.987E-04
 -15.878  0.231E-02  0.201E-02  0.689E-04  0.237E-03
 -15.778  0.368E-02  0.306E-02  0.137E-03  0.483E-03
 -15.678  0.500E-02  0.388E-02  0.247E-03  0.867E-03
 -15.578  0.601E-02  0.419E-02  0.424E-03  0.140E-02
 -15.478  0.662E-02  0.390E-02  0.689E-03  0.203E-02
 -15.378  0.685E-02  0.318E-02  0.104E-02  0.263E-02
 -15.278  0.685E-02  0.239E-02  0.143E-02  0.303E-02
 -15.178  0.700E-02  0.193E-02  0.186E-02  0.321E-02
 -15.078  0.769E-02  0.203E-02  0.233E-02  0.333E-02
 -14.978  0.901E-02  0.258E-02  0.277E-02  0.367E-02
 -14.878  0.108E-01  0.336E-02  0.307E-02  0.438E-02
 -14.778  0.129E-01  0.420E-02  0.329E-02  0.545E-02
 -14.678  0.154E-01  0.503E-02  0.366E-02  0.667E-02
 -14.578  0.178E-01  0.571E-02  0.441E-02  0.767E-02
 -14.478  0.197E-01  0.610E-02  0.553E-02  0.811E-02
 -14.378  0.211E-01  0.632E-02  0.682E-02  0.797E-02
 -14.278  0.222E-01  0.674E-02  0.790E-02  0.755E-02
 -14.178  0.232E-01  0.760E-02  0.838E-02  0.724E-02
 -14.078  0.239E-01  0.864E-02  0.806E-02  0.721E-02
 -13.978  0.237E-01  0.918E-02  0.720E-02  0.727E-02
 -13.878  0.222E-01  0.869E-02  0.644E-02  0.703E-02
 -13.778  0.198E-01  0.740E-02  0.628E-02  0.617E-02
 -13.678  0.176E-01  0.612E-02  0.673E-02  0.480E-02
 -13.578  0.162E-01  0.546E-02  0.735E-02  0.341E-02
 -13.478  0.156E-01  0.542E-02  0.770E-02  0.248E-02
 -13.378  0.153E-01  0.557E-02  0.765E-02  0.209E-02
 -13.278  0.146E-01  0.541E-02  0.717E-02  0.198E-02
 -13.178  0.128E-01  0.476E-02  0.627E-02  0.180E-02
 -13.078  0.106E-01  0.392E-02  0.525E-02  0.145E-02
 -12.978  0.910E-02  0.340E-02  0.461E-02  0.109E-02
 -12.878  0.856E-02  0.334E-02  0.439E-02  0.832E-03
 -12.778  0.799E-02  0.327E-02  0.406E-02  0.654E-03
 -12.678  0.644E-02  0.276E-02  0.320E-02  0.474E-03
 -12.578  0.415E-02  0.185E-02  0.202E-02  0.285E-03
 -12.478  0.208E-02  0.959E-03  0.987E-03  0.136E-03
 -12.378  0.803E-03  0.381E-03  0.372E-03  0.502E-04
 -12.278  0.238E-03  0.116E-03  0.107E-03  0.143E-04
 -12.178  0.538E-04  0.269E-04  0.238E-04  0.311E-05
 -12.078  0.933E-05  0.478E-05  0.403E-05  0.520E-06
 -11.978  0.124E-05  0.648E-06  0.523E-06  0.666E-07
 -11.878  0.126E-06  0.670E-07  0.520E-07  0.655E-08
 -11.778  0.974E-08  0.529E-08  0.396E-08  0.493E-09
 -11.678  0.578E-09  0.319E-09  0.230E-09  0.285E-10
 -11.578  0.262E-10  0.147E-10  0.103E-10  0.126E-11
 -11.478  0.909E-12  0.517E-12  0.349E-12  0.426E-13
 -11.378  0.238E-13  0.139E-13  0.885E-14  0.107E-14
 -11.278  0.000E+00  0.000E+00  0.000E+00  0.000E+00
 -11.178  0.000E+00  0.000E+00  0.000E+00  0.000E+00
 -11.078  0.000E+00  0.000E+00  0.000E+00  0.000E+00
 -10.978  0.000E+00  0.000E+00  0.000E+00  0.000E+00
 -10.878  0.000E+00  0.000E+00  0.000E+00  0.000E+00
 -10.778  0.000E+00  0.000E+00  0.000E+00  0.000E+00
 -10.678  0.000E+00  0.000E+00  0.000E+00  0.000E+00
 -10.578  0.000E+00  0.000E+00  0.000E+00  0.000E+00
 -10.478  0.000E+00  0.000E+00  0.000E+00  0.000E+00
 -10.378  0.000E+00  0.000E+00  0.000E+00  0.000E+00
 -10.278  0.000E+00  0.000E+00  0.000E+00  0.000E+00
 -10.178  0.000E+00  0.000E+00  0.000E+00  0.000E+00
 -10.078  0.000E+00  0.000E+00  0.000E+00  0.000E+00
  -9.978  0.000E+00  0.000E+00  0.000E+00  0.000E+00
  -9.878  0.000E+00  0.000E+00  0.000E+00  0.000E+00
  -9.778  0.000E+00  0.000E+00  0.000E+00  0.000E+00
  -9.678  0.000E+00  0.000E+00  0.000E+00  0.000E+00
  -9.578  0.000E+00  0.000E+00  0.000E+00  0.000E+00
  -9.478  0.000E+00  0.000E+00  0.000E+00  0.000E+00
  -9.378  0.000E+00  0.000E+00  0.000E+00  0.000E+00
  -9.278  0.000E+00  0.000E+00  0.000E+00  0.000E+00
  -9.178  0.000E+00  0.000E+00  0.000E+00  0.000E+00
  -9.078  0.000E+00  0.000E+00  0.000E+00  0.000E+00
  -8.978  0.000E+00  0.000E+00  0.000E+00  0.000E+00
  -8.878  0.334E-13  0.886E-16  0.129E-13  0.204E-13
  -8.778  0.182E-11  0.442E-14  0.612E-12  0.121E-11
  -8.678  0.599E-10  0.143E-12  0.197E-10  0.401E-10
  -8.578  0.151E-08  0.356E-11  0.484E-09  0.102E-08
  -8.478  0.291E-07  0.678E-10  0.911E-08  0.199E-07
  -8.378  0.432E-06  0.993E-09  0.131E-06  0.300E-06
  -8.278  0.494E-05  0.112E-07  0.146E-05  0.347E-05
  -8.178  0.435E-04  0.987E-07  0.124E-04  0.310E-04
  -8.078  0.295E-03  0.683E-06  0.814E-04  0.213E-03
  -7.978  0.155E-02  0.383E-05  0.412E-03  0.113E-02
  -7.878  0.630E-02  0.184E-04  0.162E-02  0.466E-02
  -7.778  0.200E-01  0.811E-04  0.502E-02  0.149E-01
  -7.678  0.500E-01  0.345E-03  0.124E-01  0.373E-01
  -7.578  0.100E+00  0.139E-02  0.250E-01  0.739E-01
  -7.478  0.167E+00  0.492E-02  0.428E-01  0.119E+00
  -7.378  0.242E+00  0.147E-01  0.654E-01  0.162E+00
  -7.278  0.330E+00  0.364E-01  0.932E-01  0.200E+00
  -7.178  0.443E+00  0.745E-01  0.128E+00  0.240E+00
  -7.078  0.588E+00  0.128E+00  0.172E+00  0.288E+00
  -6.978  0.752E+00  0.190E+00  0.227E+00  0.335E+00
  -6.878  0.900E+00  0.246E+00  0.290E+00  0.364E+00
  -6.778  0.998E+00  0.283E+00  0.354E+00  0.361E+00
  -6.678  0.102E+01  0.294E+00  0.402E+00  0.324E+00
  -6.578  0.957E+00  0.278E+00  0.415E+00  0.264E+00
  -6.478  0.834E+00  0.245E+00  0.387E+00  0.202E+00
  -6.378  0.693E+00  0.204E+00  0.331E+00  0.158E+00
  -6.278  0.575E+00  0.160E+00  0.274E+00  0.140E+00
  -6.178  0.496E+00  0.122E+00  0.232E+00  0.142E+00
  -6.078  0.458E+00  0.944E-01  0.211E+00  0.153E+00
  -5.978  0.452E+00  0.830E-01  0.206E+00  0.164E+00
  -5.878  0.473E+00  0.933E-01  0.207E+00  0.173E+00
  -5.778  0.518E+00  0.132E+00  0.206E+00  0.180E+00
  -5.678  0.592E+00  0.200E+00  0.203E+00  0.188E+00
  -5.578  0.684E+00  0.286E+00  0.201E+00  0.197E+00
  -5.478  0.764E+00  0.358E+00  0.201E+00  0.205E+00
  -5.378  0.792E+00  0.384E+00  0.199E+00  0.209E+00
  -5.278  0.757E+00  0.357E+00  0.196E+00  0.204E+00
  -5.178  0.693E+00  0.302E+00  0.200E+00  0.191E+00
  -5.078  0.650E+00  0.254E+00  0.220E+00  0.175E+00
  -4.978  0.658E+00  0.234E+00  0.257E+00  0.166E+00
  -4.878  0.709E+00  0.239E+00  0.299E+00  0.171E+00
  -4.778  0.773E+00  0.252E+00  0.327E+00  0.194E+00
  -4.678  0.816E+00  0.254E+00  0.330E+00  0.232E+00
  -4.578  0.822E+00  0.240E+00  0.306E+00  0.276E+00
  -4.478  0.784E+00  0.214E+00  0.262E+00  0.309E+00
  -4.378  0.704E+00  0.182E+00  0.209E+00  0.313E+00
  -4.278  0.593E+00  0.150E+00  0.158E+00  0.286E+00
  -4.178  0.482E+00  0.122E+00  0.118E+00  0.242E+00
  -4.078  0.405E+00  0.106E+00  0.949E-01  0.205E+00
  -3.978  0.378E+00  0.104E+00  0.866E-01  0.187E+00
  -3.878  0.394E+00  0.116E+00  0.887E-01  0.189E+00
  -3.778  0.437E+00  0.138E+00  0.100E+00  0.199E+00
  -3.678  0.501E+00  0.171E+00  0.123E+00  0.207E+00
  -3.578  0.580E+00  0.218E+00  0.155E+00  0.207E+00
  -3.478  0.665E+00  0.276E+00  0.188E+00  0.201E+00
  -3.378  0.734E+00  0.331E+00  0.210E+00  0.192E+00
  -3.278  0.774E+00  0.372E+00  0.219E+00  0.183E+00
  -3.178  0.784E+00  0.390E+00  0.219E+00  0.175E+00
  -3.078  0.769E+00  0.382E+00  0.217E+00  0.170E+00
  -2.978  0.732E+00  0.353E+00  0.213E+00  0.166E+00
  -2.878  0.679E+00  0.312E+00  0.204E+00  0.163E+00
  -2.778  0.621E+00  0.273E+00  0.188E+00  0.160E+00
  -2.678  0.566E+00  0.243E+00  0.170E+00  0.153E+00
  -2.578  0.520E+00  0.222E+00  0.156E+00  0.142E+00
  -2.478  0.487E+00  0.205E+00  0.149E+00  0.133E+00
  -2.378  0.468E+00  0.186E+00  0.149E+00  0.133E+00
  -2.278  0.460E+00  0.165E+00  0.151E+00  0.144E+00
  -2.178  0.466E+00  0.146E+00  0.153E+00  0.167E+00
  -2.078  0.481E+00  0.133E+00  0.153E+00  0.195E+00
  -1.978  0.490E+00  0.128E+00  0.145E+00  0.217E+00
  -1.878  0.465E+00  0.120E+00  0.126E+00  0.220E+00
  -1.778  0.391E+00  0.100E+00  0.972E-01  0.193E+00
  -1.678  0.279E+00  0.708E-01  0.667E-01  0.142E+00
  -1.578  0.170E+00  0.409E-01  0.432E-01  0.855E-01
  -1.478  0.924E-01  0.199E-01  0.297E-01  0.428E-01
  -1.378  0.535E-01  0.102E-01  0.238E-01  0.195E-01
  -1.278  0.440E-01  0.995E-02  0.230E-01  0.110E-01
  -1.178  0.540E-01  0.168E-01  0.263E-01  0.109E-01
  -1.078  0.753E-01  0.285E-01  0.327E-01  0.141E-01
  -0.978  0.979E-01  0.415E-01  0.387E-01  0.177E-01
  -0.878  0.113E+00  0.524E-01  0.409E-01  0.195E-01
  -0.778  0.117E+00  0.595E-01  0.381E-01  0.191E-01
  -0.678  0.112E+00  0.626E-01  0.318E-01  0.173E-01
  -0.578  0.100E+00  0.611E-01  0.243E-01  0.152E-01
  -0.478  0.827E-01  0.535E-01  0.167E-01  0.126E-01
  -0.378  0.597E-01  0.403E-01  0.101E-01  0.932E-02
  -0.278  0.361E-01  0.250E-01  0.523E-02  0.583E-02
  -0.178  0.177E-01  0.125E-01  0.226E-02  0.295E-02
  -0.078  0.692E-02  0.492E-02  0.808E-03  0.119E-02
   0.022  0.223E-02  0.152E-02  0.275E-03  0.434E-03
   0.122  0.122E-02  0.411E-03  0.318E-03  0.493E-03
   0.222  0.348E-02  0.338E-03  0.124E-02  0.191E-02
   0.322  0.126E-01  0.117E-02  0.456E-02  0.689E-02
   0.422  0.375E-01  0.408E-02  0.137E-01  0.197E-01
   0.522  0.908E-01  0.119E-01  0.341E-01  0.449E-01
   0.622  0.182E+00  0.287E-01  0.708E-01  0.823E-01
   0.722  0.307E+00  0.582E-01  0.124E+00  0.124E+00
   0.822  0.444E+00  0.993E-01  0.187E+00  0.158E+00
   0.922  0.562E+00  0.144E+00  0.242E+00  0.176E+00
   1.022  0.633E+00  0.179E+00  0.274E+00  0.180E+00
   1.122  0.652E+00  0.195E+00  0.276E+00  0.181E+00
   1.222  0.639E+00  0.193E+00  0.257E+00  0.189E+00
   1.322  0.621E+00  0.181E+00  0.235E+00  0.205E+00
   1.422  0.619E+00  0.171E+00  0.224E+00  0.224E+00
   1.522  0.632E+00  0.169E+00  0.226E+00  0.237E+00
   1.622  0.649E+00  0.172E+00  0.233E+00  0.243E+00
   1.722  0.647E+00  0.172E+00  0.234E+00  0.241E+00
   1.822  0.608E+00  0.162E+00  0.218E+00  0.229E+00
   1.922  0.523E+00  0.139E+00  0.181E+00  0.203E+00
   2.022  0.400E+00  0.107E+00  0.132E+00  0.161E+00
   2.122  0.266E+00  0.729E-01  0.830E-01  0.110E+00
   2.222  0.150E+00  0.427E-01  0.443E-01  0.625E-01
   2.322  0.705E-01  0.215E-01  0.200E-01  0.291E-01
   2.422  0.277E-01  0.920E-02  0.762E-02  0.109E-01
   2.522  0.914E-02  0.337E-02  0.246E-02  0.330E-02
   2.622  0.254E-02  0.105E-02  0.679E-03  0.810E-03
   2.722  0.600E-03  0.278E-03  0.160E-03  0.163E-03
   2.822  0.119E-03  0.603E-04  0.317E-04  0.271E-04
   2.922  0.196E-04  0.106E-04  0.521E-05  0.378E-05
   3.022  0.260E-05  0.147E-05  0.690E-06  0.438E-06
   3.122  0.275E-06  0.160E-06  0.725E-07  0.417E-07
