# E (eV)   ldos(E)   pdos(E)    pdos(E)    pdos(E)   
 -16.578  0.154E-06  0.144E-06  0.613E-08  0.364E-08
 -16.478  0.130E-05  0.121E-05  0.583E-07  0.342E-07
 -16.378  0.845E-05  0.776E-05  0.434E-06  0.250E-06
 -16.278  0.425E-04  0.385E-04  0.255E-05  0.144E-05
 -16.178  0.166E-03  0.148E-03  0.120E-04  0.655E-05
 -16.078  0.507E-03  0.438E-03  0.455E-04  0.238E-04
 -15.978  0.122E-02  0.101E-02  0.141E-03  0.703E-04
 -15.878  0.237E-02  0.184E-02  0.364E-03  0.170E-03
 -15.778  0.379E-02  0.267E-02  0.778E-03  0.344E-03
 -15.678  0.517E-02  0.320E-02  0.138E-02  0.583E-03
 -15.578  0.623E-02  0.335E-02  0.203E-02  0.842E-03
 -15.478  0.685E-02  0.332E-02  0.248E-02  0.105E-02
 -15.378  0.708E-02  0.332E-02  0.255E-02  0.121E-02
 -15.278  0.719E-02  0.343E-02  0.238E-02  0.138E-02
 -15.178  0.770E-02  0.368E-02  0.229E-02  0.172E-02
 -15.078  0.913E-02  0.426E-02  0.253E-02  0.233E-02
 -14.978  0.116E-01  0.533E-02  0.313E-02  0.315E-02
 -14.878  0.147E-01  0.681E-02  0.394E-02  0.397E-02
 -14.778  0.178E-01  0.842E-02  0.486E-02  0.456E-02
 -14.678  0.204E-01  0.973E-02  0.586E-02  0.478E-02
 -14.578  0.220E-01  0.104E-01  0.689E-02  0.471E-02
 -14.478  0.229E-01  0.105E-01  0.777E-02  0.468E-02
 -14.378  0.238E-01  0.105E-01  0.829E-02  0.505E-02
 -14.278  0.251E-01  0.109E-01  0.837E-02  0.580E-02
 -14.178  0.263E-01  0.117E-01  0.808E-02  0.651E-02
 -14.078  0.266E-01  0.123E-01  0.756E-02  0.673E-02
 -13.978  0.254E-01  0.121E-01  0.691E-02  0.635E-02
 -13.878  0.228E-01  0.109E-01  0.621E-02  0.567E-02
 -13.778  0.197E-01  0.901E-02  0.550E-02  0.519E-02
 -13.678  0.173E-01  0.718E-02  0.481E-02  0.527E-02
 -13.578  0.159E-01  0.577E-02  0.427E-02  0.590E-02
 -13.478  0.156E-01  0.471E-02  0.401E-02  0.683E-02
 -13.378  0.154E-01  0.387E-02  0.400E-02  0.759E-02
 -13.278  0.147E-01  0.315E-02  0.392E-02  0.765E-02
 -13.178  0.128E-01  0.250E-02  0.348E-02  0.686E-02
 -13.078  0.104E-01  0.190E-02  0.273E-02  0.576E-02
 -12.978  0.858E-02  0.146E-02  0.203E-02  0.508E-02
 -12.878  0.770E-02  0.125E-02  0.158E-02  0.487E-02
 -12.778  0.688E-02  0.111E-02  0.127E-02  0.449E-02
 -12.678  0.534E-02  0.899E-03  0.939E-03  0.350E-02
 -12.578  0.332E-02  0.590E-03  0.571E-03  0.216E-02
 -12.478  0.161E-02  0.302E-03  0.274E-03  0.103E-02
 -12.378  0.601E-03  0.119E-03  0.101E-03  0.381E-03
 -12.278  0.172E-03  0.360E-04  0.289E-04  0.108E-03
 -12.178  0.379E-04  0.829E-05  0.631E-05  0.233E-04
 -12.078  0.638E-05  0.146E-05  0.106E-05  0.386E-05
 -11.978  0.823E-06  0.197E-06  0.136E-06  0.490E-06
 -11.878  0.813E-07  0.202E-07  0.134E-07  0.477E-07
 -11.778  0.615E-08  0.159E-08  0.101E-08  0.355E-08
 -11.678  0.356E-09  0.954E-10  0.581E-10  0.203E-09
 -11.578  0.158E-10  0.437E-11  0.257E-11  0.886E-11
 -11.478  0.536E-12  0.153E-12  0.870E-13  0.297E-12
 -11.378  0.136E-13  0.407E-14  0.218E-14  0.733E-14
 -11.278  0.000E+00  0.000E+00  0.000E+00  0.000E+00
 -11.178  0.000E+00  0.000E+00  0.000E+00  0.000E+00
 -11.078  0.000E+00  0.000E+00  0.000E+00  0.000E+00
 -10.978  0.000E+00  0.000E+00  0.000E+00  0.000E+00
 -10.878  0.000E+00  0.000E+00  0.000E+00  0.000E+00
 -10.778  0.000E+00  0.000E+00  0.000E+00  0.000E+00
 -10.678  0.000E+00  0.000E+00  0.000E+00  0.000E+00
 -10.578  0.000E+00  0.000E+00  0.000E+00  0.000E+00
 -10.478  0.000E+00  0.000E+00  0.000E+00  0.000E+00
 -10.378  0.000E+00  0.000E+00  0.000E+00  0.000E+00
 -10.278  0.000E+00  0.000E+00  0.000E+00  0.000E+00
 -10.178  0.000E+00  0.000E+00  0.000E+00  0.000E+00
 -10.078  0.000E+00  0.000E+00  0.000E+00  0.000E+00
  -9.978  0.000E+00  0.000E+00  0.000E+00  0.000E+00
  -9.878  0.000E+00  0.000E+00  0.000E+00  0.000E+00
  -9.778  0.000E+00  0.000E+00  0.000E+00  0.000E+00
  -9.678  0.000E+00  0.000E+00  0.000E+00  0.000E+00
  -9.578  0.000E+00  0.000E+00  0.000E+00  0.000E+00
  -9.478  0.000E+00  0.000E+00  0.000E+00  0.000E+00
  -9.378  0.000E+00  0.000E+00  0.000E+00  0.000E+00
  -9.278  0.000E+00  0.000E+00  0.000E+00  0.000E+00
  -9.178  0.000E+00  0.000E+00  0.000E+00  0.000E+00
  -9.078  0.000E+00  0.000E+00  0.000E+00  0.000E+00
  -8.978  0.000E+00  0.000E+00  0.000E+00  0.000E+00
  -8.878  0.523E-13  0.344E-16  0.410E-13  0.112E-13
  -8.778  0.273E-11  0.201E-14  0.210E-11  0.634E-12
  -8.678  0.890E-10  0.667E-13  0.680E-10  0.209E-10
  -8.578  0.222E-08  0.170E-11  0.169E-08  0.530E-09
  -8.478  0.425E-07  0.332E-10  0.322E-07  0.103E-07
  -8.378  0.625E-06  0.502E-09  0.471E-06  0.154E-06
  -8.278  0.707E-05  0.586E-08  0.529E-05  0.178E-05
  -8.178  0.615E-04  0.533E-07  0.456E-04  0.158E-04
  -8.078  0.412E-03  0.383E-06  0.303E-03  0.108E-03
  -7.978  0.213E-02  0.224E-05  0.155E-02  0.575E-03
  -7.878  0.852E-02  0.111E-04  0.614E-02  0.237E-02
  -7.778  0.265E-01  0.503E-04  0.188E-01  0.764E-02
  -7.678  0.647E-01  0.216E-03  0.451E-01  0.194E-01
  -7.578  0.126E+00  0.872E-03  0.853E-01  0.397E-01
  -7.478  0.201E+00  0.315E-02  0.130E+00  0.672E-01
  -7.378  0.276E+00  0.976E-02  0.167E+00  0.986E-01
  -7.278  0.349E+00  0.254E-01  0.192E+00  0.131E+00
  -7.178  0.434E+00  0.551E-01  0.214E+00  0.165E+00
  -7.078  0.540E+00  0.101E+00  0.243E+00  0.196E+00
  -6.978  0.659E+00  0.157E+00  0.278E+00  0.224E+00
  -6.878  0.773E+00  0.210E+00  0.311E+00  0.252E+00
  -6.778  0.861E+00  0.243E+00  0.333E+00  0.285E+00
  -6.678  0.900E+00  0.247E+00  0.334E+00  0.319E+00
  -6.578  0.871E+00  0.223E+00  0.311E+00  0.337E+00
  -6.478  0.781E+00  0.185E+00  0.269E+00  0.327E+00
  -6.378  0.669E+00  0.147E+00  0.225E+00  0.297E+00
  -6.278  0.578E+00  0.118E+00  0.193E+00  0.267E+00
  -6.178  0.528E+00  0.101E+00  0.179E+00  0.248E+00
  -6.078  0.512E+00  0.953E-01  0.177E+00  0.240E+00
  -5.978  0.514E+00  0.102E+00  0.180E+00  0.232E+00
  -5.878  0.524E+00  0.124E+00  0.181E+00  0.220E+00
  -5.778  0.550E+00  0.165E+00  0.178E+00  0.207E+00
  -5.678  0.603E+00  0.231E+00  0.172E+00  0.200E+00
  -5.578  0.678E+00  0.308E+00  0.164E+00  0.206E+00
  -5.478  0.742E+00  0.362E+00  0.158E+00  0.222E+00
  -5.378  0.753E+00  0.360E+00  0.154E+00  0.238E+00
  -5.278  0.703E+00  0.308E+00  0.152E+00  0.243E+00
  -5.178  0.627E+00  0.240E+00  0.151E+00  0.235E+00
  -5.078  0.579E+00  0.193E+00  0.157E+00  0.229E+00
  -4.978  0.594E+00  0.181E+00  0.175E+00  0.239E+00
  -4.878  0.671E+00  0.194E+00  0.208E+00  0.269E+00
  -4.778  0.773E+00  0.215E+00  0.256E+00  0.301E+00
  -4.678  0.854E+00  0.227E+00  0.310E+00  0.318E+00
  -4.578  0.885E+00  0.223E+00  0.354E+00  0.308E+00
  -4.478  0.855E+00  0.209E+00  0.370E+00  0.276E+00
  -4.378  0.770E+00  0.193E+00  0.345E+00  0.231E+00
  -4.278  0.650E+00  0.181E+00  0.285E+00  0.184E+00
  -4.178  0.535E+00  0.176E+00  0.216E+00  0.144E+00
  -4.078  0.465E+00  0.181E+00  0.164E+00  0.120E+00
  -3.978  0.449E+00  0.195E+00  0.142E+00  0.112E+00
  -3.878  0.464E+00  0.210E+00  0.141E+00  0.113E+00
  -3.778  0.479E+00  0.219E+00  0.146E+00  0.115E+00
  -3.678  0.491E+00  0.223E+00  0.149E+00  0.119E+00
  -3.578  0.514E+00  0.234E+00  0.148E+00  0.131E+00
  -3.478  0.562E+00  0.262E+00  0.150E+00  0.150E+00
  -3.378  0.628E+00  0.302E+00  0.157E+00  0.169E+00
  -3.278  0.694E+00  0.338E+00  0.174E+00  0.182E+00
  -3.178  0.743E+00  0.358E+00  0.196E+00  0.190E+00
  -3.078  0.765E+00  0.357E+00  0.212E+00  0.196E+00
  -2.978  0.756E+00  0.339E+00  0.214E+00  0.203E+00
  -2.878  0.718E+00  0.316E+00  0.199E+00  0.203E+00
  -2.778  0.665E+00  0.298E+00  0.175E+00  0.192E+00
  -2.678  0.615E+00  0.288E+00  0.151E+00  0.176E+00
  -2.578  0.576E+00  0.277E+00  0.132E+00  0.167E+00
  -2.478  0.548E+00  0.253E+00  0.124E+00  0.172E+00
  -2.378  0.528E+00  0.213E+00  0.130E+00  0.185E+00
  -2.278  0.518E+00  0.174E+00  0.151E+00  0.194E+00
  -2.178  0.523E+00  0.154E+00  0.182E+00  0.188E+00
  -2.078  0.544E+00  0.163E+00  0.212E+00  0.169E+00
  -1.978  0.560E+00  0.188E+00  0.224E+00  0.148E+00
  -1.878  0.533E+00  0.201E+00  0.205E+00  0.127E+00
  -1.778  0.442E+00  0.180E+00  0.158E+00  0.103E+00
  -1.678  0.306E+00  0.130E+00  0.101E+00  0.749E-01
  -1.578  0.174E+00  0.750E-01  0.529E-01  0.463E-01
  -1.478  0.843E-01  0.351E-01  0.241E-01  0.252E-01
  -1.378  0.408E-01  0.144E-01  0.117E-01  0.147E-01
  -1.278  0.301E-01  0.723E-02  0.934E-02  0.135E-01
  -1.178  0.388E-01  0.780E-02  0.125E-01  0.186E-01
  -1.078  0.582E-01  0.136E-01  0.182E-01  0.263E-01
  -0.978  0.807E-01  0.242E-01  0.236E-01  0.328E-01
  -0.878  0.101E+00  0.397E-01  0.258E-01  0.351E-01
  -0.778  0.117E+00  0.602E-01  0.238E-01  0.330E-01
  -0.678  0.133E+00  0.846E-01  0.192E-01  0.288E-01
  -0.578  0.145E+00  0.107E+00  0.140E-01  0.245E-01
  -0.478  0.145E+00  0.115E+00  0.955E-02  0.200E-01
  -0.378  0.122E+00  0.101E+00  0.597E-02  0.148E-01
  -0.278  0.834E-01  0.708E-01  0.327E-02  0.927E-02
  -0.178  0.449E-01  0.387E-01  0.150E-02  0.472E-02
  -0.078  0.188E-01  0.163E-01  0.569E-03  0.191E-02
   0.022  0.618E-02  0.531E-02  0.219E-03  0.652E-03
   0.122  0.222E-02  0.141E-02  0.348E-03  0.469E-03
   0.222  0.367E-02  0.675E-03  0.146E-02  0.153E-02
   0.322  0.127E-01  0.172E-02  0.542E-02  0.558E-02
   0.422  0.381E-01  0.540E-02  0.161E-01  0.165E-01
   0.522  0.927E-01  0.140E-01  0.388E-01  0.399E-01
   0.622  0.186E+00  0.297E-01  0.767E-01  0.791E-01
   0.722  0.310E+00  0.519E-01  0.127E+00  0.131E+00
   0.822  0.440E+00  0.760E-01  0.178E+00  0.186E+00
   0.922  0.540E+00  0.954E-01  0.219E+00  0.226E+00
   1.022  0.592E+00  0.106E+00  0.241E+00  0.245E+00
   1.122  0.602E+00  0.109E+00  0.251E+00  0.242E+00
   1.222  0.588E+00  0.107E+00  0.253E+00  0.228E+00
   1.322  0.567E+00  0.104E+00  0.252E+00  0.212E+00
   1.422  0.546E+00  0.101E+00  0.246E+00  0.199E+00
   1.522  0.539E+00  0.103E+00  0.239E+00  0.197E+00
   1.622  0.557E+00  0.109E+00  0.240E+00  0.208E+00
   1.722  0.582E+00  0.115E+00  0.245E+00  0.222E+00
   1.822  0.575E+00  0.116E+00  0.238E+00  0.221E+00
   1.922  0.509E+00  0.105E+00  0.207E+00  0.198E+00
   2.022  0.393E+00  0.841E-01  0.154E+00  0.155E+00
   2.122  0.263E+00  0.610E-01  0.963E-01  0.106E+00
   2.222  0.154E+00  0.411E-01  0.501E-01  0.625E-01
   2.322  0.790E-01  0.259E-01  0.215E-01  0.315E-01
   2.422  0.360E-01  0.148E-01  0.762E-02  0.136E-01
   2.522  0.144E-01  0.721E-02  0.221E-02  0.501E-02
   2.622  0.498E-02  0.288E-02  0.528E-03  0.157E-02
   2.722  0.143E-02  0.910E-03  0.104E-03  0.417E-03
   2.822  0.332E-03  0.224E-03  0.169E-04  0.909E-04
   2.922  0.611E-04  0.428E-04  0.229E-05  0.160E-04
   3.022  0.877E-05  0.629E-05  0.256E-06  0.223E-05
   3.122  0.975E-06  0.709E-06  0.234E-07  0.243E-06
