# E (eV)   ldos(E)   pdos(E)    pdos(E)    pdos(E)    pdos(E)    pdos(E)   
 -16.578  0.295E-07  0.223E-07  0.757E-10  0.145E-09  0.782E-09  0.627E-08
 -16.478  0.248E-06  0.186E-06  0.683E-09  0.125E-08  0.660E-08  0.533E-07
 -16.378  0.160E-05  0.119E-05  0.479E-08  0.832E-08  0.430E-07  0.351E-06
 -16.278  0.796E-05  0.588E-05  0.261E-07  0.430E-07  0.218E-06  0.179E-05
 -16.178  0.306E-04  0.224E-04  0.112E-06  0.174E-06  0.864E-06  0.712E-05
 -16.078  0.919E-04  0.659E-04  0.377E-06  0.549E-06  0.273E-05  0.224E-04
 -15.978  0.216E-03  0.151E-03  0.103E-05  0.138E-05  0.711E-05  0.562E-04
 -15.878  0.407E-03  0.270E-03  0.232E-05  0.281E-05  0.158E-04  0.116E-03
 -15.778  0.624E-03  0.384E-03  0.463E-05  0.474E-05  0.316E-04  0.199E-03
 -15.678  0.806E-03  0.439E-03  0.870E-05  0.687E-05  0.592E-04  0.292E-03
 -15.578  0.914E-03  0.414E-03  0.158E-04  0.890E-05  0.104E-03  0.371E-03
 -15.478  0.948E-03  0.330E-03  0.265E-04  0.108E-04  0.170E-03  0.410E-03
 -15.378  0.939E-03  0.228E-03  0.391E-04  0.129E-04  0.255E-03  0.404E-03
 -15.278  0.944E-03  0.146E-03  0.494E-04  0.164E-04  0.355E-03  0.378E-03
 -15.178  0.105E-02  0.117E-03  0.545E-04  0.229E-04  0.473E-03  0.379E-03
 -15.078  0.137E-02  0.200E-03  0.560E-04  0.335E-04  0.632E-03  0.452E-03
 -14.978  0.213E-02  0.526E-03  0.581E-04  0.478E-04  0.871E-03  0.622E-03
 -14.878  0.360E-02  0.134E-02  0.639E-04  0.656E-04  0.123E-02  0.906E-03
 -14.778  0.606E-02  0.288E-02  0.733E-04  0.890E-04  0.173E-02  0.130E-02
 -14.678  0.937E-02  0.510E-02  0.846E-04  0.121E-03  0.230E-02  0.176E-02
 -14.578  0.128E-01  0.746E-02  0.975E-04  0.156E-03  0.287E-02  0.221E-02
 -14.478  0.154E-01  0.918E-02  0.115E-03  0.182E-03  0.338E-02  0.256E-02
 -14.378  0.169E-01  0.992E-02  0.138E-03  0.190E-03  0.389E-02  0.279E-02
 -14.278  0.180E-01  0.101E-01  0.165E-03  0.186E-03  0.458E-02  0.297E-02
 -14.178  0.194E-01  0.102E-01  0.185E-03  0.185E-03  0.559E-02  0.325E-02
 -14.078  0.213E-01  0.103E-01  0.192E-03  0.198E-03  0.687E-02  0.376E-02
 -13.978  0.228E-01  0.983E-02  0.187E-03  0.224E-03  0.808E-02  0.453E-02
 -13.878  0.231E-01  0.831E-02  0.175E-03  0.250E-03  0.886E-02  0.545E-02
 -13.778  0.220E-01  0.612E-02  0.159E-03  0.258E-03  0.912E-02  0.629E-02
 -13.678  0.205E-01  0.421E-02  0.139E-03  0.243E-03  0.899E-02  0.687E-02
 -13.578  0.195E-01  0.335E-02  0.122E-03  0.212E-03  0.847E-02  0.732E-02
 -13.478  0.194E-01  0.368E-02  0.115E-03  0.184E-03  0.744E-02  0.798E-02
 -13.378  0.199E-01  0.472E-02  0.122E-03  0.169E-03  0.603E-02  0.888E-02
 -13.278  0.198E-01  0.557E-02  0.133E-03  0.160E-03  0.459E-02  0.939E-02
 -13.178  0.181E-01  0.547E-02  0.130E-03  0.145E-03  0.341E-02  0.891E-02
 -13.078  0.151E-01  0.444E-02  0.109E-03  0.125E-03  0.262E-02  0.776E-02
 -12.978  0.125E-01  0.314E-02  0.831E-04  0.111E-03  0.228E-02  0.693E-02
 -12.878  0.113E-01  0.217E-02  0.639E-04  0.107E-03  0.226E-02  0.673E-02
 -12.778  0.103E-01  0.156E-02  0.515E-04  0.992E-04  0.219E-02  0.644E-02
 -12.678  0.830E-02  0.110E-02  0.392E-04  0.791E-04  0.180E-02  0.529E-02
 -12.578  0.538E-02  0.666E-03  0.251E-04  0.504E-04  0.118E-02  0.346E-02
 -12.478  0.272E-02  0.325E-03  0.127E-04  0.250E-04  0.598E-03  0.176E-02
 -12.378  0.106E-02  0.123E-03  0.497E-05  0.954E-05  0.233E-03  0.685E-03
 -12.278  0.315E-03  0.361E-04  0.149E-05  0.279E-05  0.695E-04  0.205E-03
 -12.178  0.718E-04  0.810E-05  0.343E-06  0.627E-06  0.159E-04  0.468E-04
 -12.078  0.125E-04  0.139E-05  0.602E-07  0.108E-06  0.277E-05  0.820E-05
 -11.978  0.167E-05  0.183E-06  0.809E-08  0.142E-07  0.371E-06  0.110E-05
 -11.878  0.171E-06  0.184E-07  0.830E-09  0.143E-08  0.378E-07  0.112E-06
 -11.778  0.133E-07  0.142E-08  0.651E-10  0.111E-09  0.296E-08  0.878E-08
 -11.678  0.795E-09  0.835E-10  0.390E-11  0.653E-11  0.176E-09  0.525E-09
 -11.578  0.363E-10  0.376E-11  0.178E-12  0.295E-12  0.805E-11  0.240E-10
 -11.478  0.126E-11  0.130E-12  0.624E-14  0.102E-13  0.280E-12  0.837E-12
 -11.378  0.334E-13  0.337E-14  0.166E-15  0.263E-15  0.742E-14  0.222E-13
 -11.278  0.000E+00  0.000E+00  0.000E+00  0.000E+00  0.000E+00  0.000E+00
 -11.178  0.000E+00  0.000E+00  0.000E+00  0.000E+00  0.000E+00  0.000E+00
 -11.078  0.000E+00  0.000E+00  0.000E+00  0.000E+00  0.000E+00  0.000E+00
 -10.978  0.000E+00  0.000E+00  0.000E+00  0.000E+00  0.000E+00  0.000E+00
 -10.878  0.000E+00  0.000E+00  0.000E+00  0.000E+00  0.000E+00  0.000E+00
 -10.778  0.000E+00  0.000E+00  0.000E+00  0.000E+00  0.000E+00  0.000E+00
 -10.678  0.000E+00  0.000E+00  0.000E+00  0.000E+00  0.000E+00  0.000E+00
 -10.578  0.000E+00  0.000E+00  0.000E+00  0.000E+00  0.000E+00  0.000E+00
 -10.478  0.000E+00  0.000E+00  0.000E+00  0.000E+00  0.000E+00  0.000E+00
 -10.378  0.000E+00  0.000E+00  0.000E+00  0.000E+00  0.000E+00  0.000E+00
 -10.278  0.000E+00  0.000E+00  0.000E+00  0.000E+00  0.000E+00  0.000E+00
 -10.178  0.000E+00  0.000E+00  0.000E+00  0.000E+00  0.000E+00  0.000E+00
 -10.078  0.000E+00  0.000E+00  0.000E+00  0.000E+00  0.000E+00  0.000E+00
  -9.978  0.000E+00  0.000E+00  0.000E+00  0.000E+00  0.000E+00  0.000E+00
  -9.878  0.000E+00  0.000E+00  0.000E+00  0.000E+00  0.000E+00  0.000E+00
  -9.778  0.000E+00  0.000E+00  0.000E+00  0.000E+00  0.000E+00  0.000E+00
  -9.678  0.000E+00  0.000E+00  0.000E+00  0.000E+00  0.000E+00  0.000E+00
  -9.578  0.000E+00  0.000E+00  0.000E+00  0.000E+00  0.000E+00  0.000E+00
  -9.478  0.000E+00  0.000E+00  0.000E+00  0.000E+00  0.000E+00  0.000E+00
  -9.378  0.000E+00  0.000E+00  0.000E+00  0.000E+00  0.000E+00  0.000E+00
  -9.278  0.000E+00  0.000E+00  0.000E+00  0.000E+00  0.000E+00  0.000E+00
  -9.178  0.000E+00  0.000E+00  0.000E+00  0.000E+00  0.000E+00  0.000E+00
  -9.078  0.000E+00  0.000E+00  0.000E+00  0.000E+00  0.000E+00  0.000E+00
  -8.978  0.000E+00  0.000E+00  0.000E+00  0.000E+00  0.000E+00  0.000E+00
  -8.878  0.111E-14  0.134E-16  0.102E-14  0.473E-16  0.243E-16  0.744E-18
  -8.778  0.602E-13  0.105E-14  0.518E-13  0.358E-14  0.332E-14  0.438E-15
  -8.678  0.197E-11  0.369E-13  0.168E-11  0.123E-12  0.117E-12  0.162E-13
  -8.578  0.496E-10  0.103E-11  0.417E-10  0.325E-11  0.316E-11  0.469E-12
  -8.478  0.957E-09  0.218E-10  0.793E-09  0.661E-10  0.654E-10  0.103E-10
  -8.378  0.142E-07  0.365E-09  0.116E-07  0.104E-08  0.104E-08  0.174E-09
  -8.278  0.162E-06  0.489E-08  0.130E-06  0.126E-07  0.127E-07  0.229E-08
  -8.178  0.143E-05  0.531E-07  0.112E-05  0.119E-06  0.118E-06  0.235E-07
  -8.078  0.981E-05  0.473E-06  0.742E-05  0.871E-06  0.851E-06  0.190E-06
  -7.978  0.524E-04  0.349E-05  0.379E-04  0.500E-05  0.472E-05  0.124E-05
  -7.878  0.221E-03  0.213E-04  0.150E-03  0.227E-04  0.202E-04  0.655E-05
  -7.778  0.746E-03  0.107E-03  0.460E-03  0.826E-04  0.678E-04  0.288E-04
  -7.678  0.208E-02  0.440E-03  0.111E-02  0.244E-03  0.181E-03  0.106E-03
  -7.578  0.490E-02  0.148E-02  0.210E-02  0.598E-03  0.394E-03  0.329E-03
  -7.478  0.102E-01  0.408E-02  0.324E-02  0.124E-02  0.748E-03  0.860E-03
  -7.378  0.189E-01  0.926E-02  0.419E-02  0.220E-02  0.133E-02  0.190E-02
  -7.278  0.317E-01  0.175E-01  0.483E-02  0.346E-02  0.234E-02  0.357E-02
  -7.178  0.481E-01  0.281E-01  0.532E-02  0.492E-02  0.403E-02  0.572E-02
  -7.078  0.654E-01  0.387E-01  0.582E-02  0.645E-02  0.647E-02  0.794E-02
  -6.978  0.799E-01  0.467E-01  0.634E-02  0.784E-02  0.932E-02  0.972E-02
  -6.878  0.879E-01  0.497E-01  0.674E-02  0.879E-02  0.120E-01  0.108E-01
  -6.778  0.881E-01  0.470E-01  0.688E-02  0.909E-02  0.140E-01  0.111E-01
  -6.678  0.813E-01  0.397E-01  0.668E-02  0.875E-02  0.153E-01  0.109E-01
  -6.578  0.704E-01  0.301E-01  0.610E-02  0.796E-02  0.159E-01  0.103E-01
  -6.478  0.583E-01  0.210E-01  0.522E-02  0.696E-02  0.159E-01  0.930E-02
  -6.378  0.472E-01  0.138E-01  0.429E-02  0.593E-02  0.151E-01  0.806E-02
  -6.278  0.378E-01  0.897E-02  0.354E-02  0.492E-02  0.135E-01  0.688E-02
  -6.178  0.305E-01  0.603E-02  0.309E-02  0.395E-02  0.113E-01  0.611E-02
  -6.078  0.262E-01  0.461E-02  0.297E-02  0.320E-02  0.930E-02  0.610E-02
  -5.978  0.261E-01  0.458E-02  0.323E-02  0.295E-02  0.838E-02  0.698E-02
  -5.878  0.309E-01  0.607E-02  0.397E-02  0.349E-02  0.883E-02  0.855E-02
  -5.778  0.401E-01  0.914E-02  0.534E-02  0.504E-02  0.102E-01  0.104E-01
  -5.678  0.520E-01  0.132E-01  0.743E-02  0.752E-02  0.117E-01  0.123E-01
  -5.578  0.636E-01  0.165E-01  0.101E-01  0.104E-01  0.126E-01  0.140E-01
  -5.478  0.719E-01  0.175E-01  0.128E-01  0.128E-01  0.131E-01  0.157E-01
  -5.378  0.756E-01  0.156E-01  0.151E-01  0.137E-01  0.139E-01  0.173E-01
  -5.278  0.758E-01  0.119E-01  0.166E-01  0.130E-01  0.154E-01  0.188E-01
  -5.178  0.748E-01  0.812E-02  0.174E-01  0.114E-01  0.179E-01  0.199E-01
  -5.078  0.741E-01  0.535E-02  0.174E-01  0.988E-02  0.210E-01  0.205E-01
  -4.978  0.740E-01  0.382E-02  0.167E-01  0.945E-02  0.237E-01  0.204E-01
  -4.878  0.745E-01  0.316E-02  0.155E-01  0.106E-01  0.253E-01  0.199E-01
  -4.778  0.748E-01  0.287E-02  0.144E-01  0.129E-01  0.253E-01  0.194E-01
  -4.678  0.737E-01  0.259E-02  0.134E-01  0.152E-01  0.237E-01  0.189E-01
  -4.578  0.700E-01  0.223E-02  0.122E-01  0.163E-01  0.209E-01  0.184E-01
  -4.478  0.639E-01  0.189E-02  0.109E-01  0.154E-01  0.179E-01  0.178E-01
  -4.378  0.573E-01  0.163E-02  0.952E-02  0.130E-01  0.157E-01  0.174E-01
  -4.278  0.523E-01  0.147E-02  0.855E-02  0.104E-01  0.147E-01  0.172E-01
  -4.178  0.503E-01  0.135E-02  0.836E-02  0.864E-02  0.148E-01  0.172E-01
  -4.078  0.518E-01  0.128E-02  0.926E-02  0.839E-02  0.154E-01  0.175E-01
  -3.978  0.562E-01  0.123E-02  0.112E-01  0.952E-02  0.162E-01  0.180E-01
  -3.878  0.615E-01  0.128E-02  0.134E-01  0.113E-01  0.169E-01  0.186E-01
  -3.778  0.654E-01  0.155E-02  0.149E-01  0.128E-01  0.174E-01  0.187E-01
  -3.678  0.662E-01  0.226E-02  0.149E-01  0.133E-01  0.175E-01  0.182E-01
  -3.578  0.644E-01  0.355E-02  0.134E-01  0.128E-01  0.172E-01  0.175E-01
  -3.478  0.617E-01  0.529E-02  0.112E-01  0.118E-01  0.163E-01  0.170E-01
  -3.378  0.597E-01  0.702E-02  0.930E-02  0.108E-01  0.155E-01  0.171E-01
  -3.278  0.591E-01  0.835E-02  0.819E-02  0.100E-01  0.151E-01  0.175E-01
  -3.178  0.600E-01  0.920E-02  0.799E-02  0.962E-02  0.154E-01  0.178E-01
  -3.078  0.615E-01  0.976E-02  0.831E-02  0.940E-02  0.162E-01  0.179E-01
  -2.978  0.623E-01  0.102E-01  0.870E-02  0.909E-02  0.167E-01  0.176E-01
  -2.878  0.623E-01  0.108E-01  0.893E-02  0.859E-02  0.170E-01  0.171E-01
  -2.778  0.622E-01  0.115E-01  0.907E-02  0.807E-02  0.170E-01  0.165E-01
  -2.678  0.632E-01  0.127E-01  0.930E-02  0.790E-02  0.172E-01  0.161E-01
  -2.578  0.649E-01  0.139E-01  0.967E-02  0.813E-02  0.175E-01  0.156E-01
  -2.478  0.655E-01  0.148E-01  0.100E-01  0.842E-02  0.173E-01  0.150E-01
  -2.378  0.639E-01  0.151E-01  0.102E-01  0.845E-02  0.162E-01  0.140E-01
  -2.278  0.607E-01  0.151E-01  0.101E-01  0.826E-02  0.143E-01  0.130E-01
  -2.178  0.583E-01  0.158E-01  0.999E-02  0.822E-02  0.122E-01  0.121E-01
  -2.078  0.583E-01  0.179E-01  0.102E-01  0.852E-02  0.103E-01  0.113E-01
  -1.978  0.594E-01  0.207E-01  0.106E-01  0.887E-02  0.873E-02  0.105E-01
  -1.878  0.581E-01  0.222E-01  0.104E-01  0.869E-02  0.724E-02  0.961E-02
  -1.778  0.516E-01  0.204E-01  0.900E-02  0.762E-02  0.583E-02  0.868E-02
  -1.678  0.411E-01  0.157E-01  0.665E-02  0.602E-02  0.468E-02  0.808E-02
  -1.578  0.308E-01  0.101E-01  0.419E-02  0.461E-02  0.398E-02  0.796E-02
  -1.478  0.238E-01  0.580E-02  0.245E-02  0.398E-02  0.362E-02  0.797E-02
  -1.378  0.204E-01  0.331E-02  0.174E-02  0.427E-02  0.340E-02  0.772E-02
  -1.278  0.204E-01  0.217E-02  0.206E-02  0.551E-02  0.326E-02  0.737E-02
  -1.178  0.239E-01  0.187E-02  0.346E-02  0.775E-02  0.331E-02  0.752E-02
  -1.078  0.311E-01  0.229E-02  0.592E-02  0.109E-01  0.356E-02  0.840E-02
  -0.978  0.402E-01  0.344E-02  0.912E-02  0.144E-01  0.376E-02  0.950E-02
  -0.878  0.483E-01  0.515E-02  0.122E-01  0.173E-01  0.363E-02  0.997E-02
  -0.778  0.521E-01  0.678E-02  0.140E-01  0.188E-01  0.308E-02  0.945E-02
  -0.678  0.497E-01  0.752E-02  0.136E-01  0.182E-01  0.228E-02  0.814E-02
  -0.578  0.415E-01  0.697E-02  0.112E-01  0.154E-01  0.149E-02  0.642E-02
  -0.478  0.299E-01  0.542E-02  0.777E-02  0.113E-01  0.851E-03  0.460E-02
  -0.378  0.185E-01  0.357E-02  0.458E-02  0.705E-02  0.426E-03  0.291E-02
  -0.278  0.977E-02  0.198E-02  0.230E-02  0.373E-02  0.184E-03  0.158E-02
  -0.178  0.431E-02  0.914E-03  0.969E-03  0.164E-02  0.679E-04  0.715E-03
  -0.078  0.156E-02  0.343E-03  0.339E-03  0.595E-03  0.214E-04  0.263E-03
   0.022  0.483E-03  0.108E-03  0.102E-03  0.184E-03  0.835E-05  0.813E-04
   0.122  0.287E-03  0.580E-04  0.625E-04  0.103E-03  0.193E-04  0.442E-04
   0.222  0.886E-03  0.170E-03  0.200E-03  0.297E-03  0.880E-04  0.131E-03
   0.322  0.326E-02  0.638E-03  0.754E-03  0.105E-02  0.333E-03  0.488E-03
   0.422  0.979E-02  0.196E-02  0.233E-02  0.304E-02  0.100E-02  0.147E-02
   0.522  0.237E-01  0.483E-02  0.585E-02  0.708E-02  0.242E-02  0.354E-02
   0.622  0.470E-01  0.974E-02  0.120E-01  0.135E-01  0.480E-02  0.696E-02
   0.722  0.775E-01  0.163E-01  0.205E-01  0.213E-01  0.799E-02  0.114E-01
   0.822  0.109E+00  0.232E-01  0.291E-01  0.288E-01  0.116E-01  0.160E-01
   0.922  0.133E+00  0.286E-01  0.351E-01  0.341E-01  0.152E-01  0.197E-01
   1.022  0.146E+00  0.314E-01  0.371E-01  0.363E-01  0.189E-01  0.222E-01
   1.122  0.150E+00  0.315E-01  0.357E-01  0.358E-01  0.232E-01  0.236E-01
   1.222  0.149E+00  0.296E-01  0.332E-01  0.340E-01  0.278E-01  0.248E-01
   1.322  0.148E+00  0.261E-01  0.314E-01  0.326E-01  0.318E-01  0.265E-01
   1.422  0.148E+00  0.216E-01  0.306E-01  0.333E-01  0.341E-01  0.286E-01
   1.522  0.150E+00  0.169E-01  0.310E-01  0.369E-01  0.346E-01  0.303E-01
   1.622  0.153E+00  0.129E-01  0.331E-01  0.423E-01  0.337E-01  0.307E-01
   1.722  0.155E+00  0.979E-02  0.375E-01  0.466E-01  0.318E-01  0.295E-01
   1.822  0.153E+00  0.760E-02  0.429E-01  0.464E-01  0.293E-01  0.270E-01
   1.922  0.142E+00  0.598E-02  0.459E-01  0.403E-01  0.262E-01  0.235E-01
   2.022  0.120E+00  0.464E-02  0.433E-01  0.301E-01  0.226E-01  0.192E-01
   2.122  0.904E-01  0.344E-02  0.348E-01  0.195E-01  0.182E-01  0.145E-01
   2.222  0.600E-01  0.236E-02  0.234E-01  0.111E-01  0.133E-01  0.981E-02
   2.322  0.346E-01  0.145E-02  0.132E-01  0.557E-02  0.854E-02  0.581E-02
   2.422  0.171E-01  0.774E-03  0.624E-02  0.248E-02  0.466E-02  0.295E-02
   2.522  0.714E-02  0.346E-03  0.247E-02  0.958E-03  0.211E-02  0.125E-02
   2.622  0.247E-02  0.126E-03  0.817E-03  0.313E-03  0.779E-03  0.433E-03
   2.722  0.694E-03  0.369E-04  0.222E-03  0.844E-04  0.230E-03  0.120E-03
   2.822  0.156E-03  0.850E-05  0.490E-04  0.183E-04  0.537E-04  0.266E-04
   2.922  0.277E-04  0.153E-05  0.861E-05  0.314E-05  0.980E-05  0.460E-05
   3.022  0.384E-05  0.213E-06  0.119E-05  0.423E-06  0.139E-05  0.620E-06
   3.122  0.413E-06  0.230E-07  0.128E-06  0.443E-07  0.152E-06  0.648E-07
