# E (eV)   ldos(E)   pdos(E)    pdos(E)    pdos(E)   
 -16.578  0.101E-06  0.688E-10  0.512E-07  0.501E-07
 -16.478  0.957E-06  0.616E-09  0.485E-06  0.472E-06
 -16.378  0.706E-05  0.479E-08  0.358E-05  0.347E-05
 -16.278  0.409E-04  0.371E-07  0.209E-04  0.200E-04
 -16.178  0.188E-03  0.310E-06  0.964E-04  0.909E-04
 -16.078  0.691E-03  0.254E-05  0.358E-03  0.330E-03
 -15.978  0.208E-02  0.179E-04  0.109E-02  0.973E-03
 -15.878  0.523E-02  0.100E-03  0.276E-02  0.237E-02
 -15.778  0.112E-01  0.438E-03  0.596E-02  0.484E-02
 -15.678  0.211E-01  0.148E-02  0.111E-01  0.850E-02
 -15.578  0.348E-01  0.385E-02  0.180E-01  0.130E-01
 -15.478  0.509E-01  0.776E-02  0.256E-01  0.176E-01
 -15.378  0.663E-01  0.121E-01  0.323E-01  0.218E-01
 -15.278  0.786E-01  0.149E-01  0.376E-01  0.261E-01
 -15.178  0.896E-01  0.146E-01  0.424E-01  0.326E-01
 -15.078  0.105E+00  0.123E-01  0.490E-01  0.438E-01
 -14.978  0.130E+00  0.111E-01  0.585E-01  0.603E-01
 -14.878  0.165E+00  0.157E-01  0.691E-01  0.798E-01
 -14.778  0.206E+00  0.311E-01  0.778E-01  0.969E-01
 -14.678  0.247E+00  0.600E-01  0.819E-01  0.105E+00
 -14.578  0.285E+00  0.987E-01  0.823E-01  0.104E+00
 -14.478  0.323E+00  0.138E+00  0.861E-01  0.998E-01
 -14.378  0.377E+00  0.168E+00  0.103E+00  0.107E+00
 -14.278  0.455E+00  0.190E+00  0.135E+00  0.130E+00
 -14.178  0.545E+00  0.211E+00  0.172E+00  0.162E+00
 -14.078  0.613E+00  0.234E+00  0.195E+00  0.185E+00
 -13.978  0.622E+00  0.253E+00  0.188E+00  0.182E+00
 -13.878  0.560E+00  0.258E+00  0.152E+00  0.149E+00
 -13.778  0.450E+00  0.246E+00  0.103E+00  0.101E+00
 -13.678  0.330E+00  0.215E+00  0.581E-01  0.567E-01
 -13.578  0.224E+00  0.168E+00  0.288E-01  0.273E-01
 -13.478  0.141E+00  0.113E+00  0.145E-01  0.133E-01
 -13.378  0.838E-01  0.656E-01  0.954E-02  0.867E-02
 -13.278  0.498E-01  0.336E-01  0.837E-02  0.784E-02
 -13.178  0.315E-01  0.166E-01  0.759E-02  0.728E-02
 -13.078  0.202E-01  0.860E-02  0.591E-02  0.573E-02
 -12.978  0.118E-01  0.451E-02  0.368E-02  0.358E-02
 -12.878  0.572E-02  0.217E-02  0.179E-02  0.175E-02
 -12.778  0.230E-02  0.944E-03  0.686E-03  0.672E-03
 -12.678  0.810E-03  0.389E-03  0.212E-03  0.209E-03
 -12.578  0.272E-03  0.160E-03  0.561E-04  0.561E-04
 -12.478  0.911E-04  0.626E-04  0.140E-04  0.144E-04
 -12.378  0.284E-04  0.212E-04  0.350E-05  0.373E-05
 -12.278  0.751E-05  0.578E-05  0.822E-06  0.904E-06
 -12.178  0.158E-05  0.123E-05  0.165E-06  0.186E-06
 -12.078  0.260E-06  0.203E-06  0.266E-07  0.306E-07
 -11.978  0.330E-07  0.257E-07  0.335E-08  0.391E-08
 -11.878  0.321E-08  0.250E-08  0.325E-09  0.385E-09
 -11.778  0.239E-09  0.186E-09  0.242E-10  0.291E-10
 -11.678  0.137E-10  0.106E-10  0.138E-11  0.168E-11
 -11.578  0.598E-12  0.463E-12  0.606E-13  0.745E-13
 -11.478  0.200E-13  0.155E-13  0.203E-14  0.253E-14
 -11.378  0.494E-15  0.382E-15  0.494E-16  0.629E-16
 -11.278  0.000E+00  0.000E+00  0.000E+00  0.000E+00
 -11.178  0.000E+00  0.000E+00  0.000E+00  0.000E+00
 -11.078  0.000E+00  0.000E+00  0.000E+00  0.000E+00
 -10.978  0.000E+00  0.000E+00  0.000E+00  0.000E+00
 -10.878  0.000E+00  0.000E+00  0.000E+00  0.000E+00
 -10.778  0.000E+00  0.000E+00  0.000E+00  0.000E+00
 -10.678  0.000E+00  0.000E+00  0.000E+00  0.000E+00
 -10.578  0.000E+00  0.000E+00  0.000E+00  0.000E+00
 -10.478  0.000E+00  0.000E+00  0.000E+00  0.000E+00
 -10.378  0.000E+00  0.000E+00  0.000E+00  0.000E+00
 -10.278  0.000E+00  0.000E+00  0.000E+00  0.000E+00
 -10.178  0.000E+00  0.000E+00  0.000E+00  0.000E+00
 -10.078  0.000E+00  0.000E+00  0.000E+00  0.000E+00
  -9.978  0.000E+00  0.000E+00  0.000E+00  0.000E+00
  -9.878  0.000E+00  0.000E+00  0.000E+00  0.000E+00
  -9.778  0.000E+00  0.000E+00  0.000E+00  0.000E+00
  -9.678  0.000E+00  0.000E+00  0.000E+00  0.000E+00
  -9.578  0.000E+00  0.000E+00  0.000E+00  0.000E+00
  -9.478  0.000E+00  0.000E+00  0.000E+00  0.000E+00
  -9.378  0.000E+00  0.000E+00  0.000E+00  0.000E+00
  -9.278  0.000E+00  0.000E+00  0.000E+00  0.000E+00
  -9.178  0.000E+00  0.000E+00  0.000E+00  0.000E+00
  -9.078  0.000E+00  0.000E+00  0.000E+00  0.000E+00
  -8.978  0.000E+00  0.000E+00  0.000E+00  0.000E+00
  -8.878  0.694E-14  0.278E-14  0.309E-14  0.106E-14
  -8.778  0.336E-12  0.143E-12  0.144E-12  0.496E-13
  -8.678  0.108E-10  0.463E-11  0.461E-11  0.159E-11
  -8.578  0.267E-09  0.115E-09  0.113E-09  0.390E-10
  -8.478  0.505E-08  0.220E-08  0.212E-08  0.732E-09
  -8.378  0.732E-07  0.322E-07  0.305E-07  0.105E-07
  -8.278  0.815E-06  0.362E-06  0.336E-06  0.117E-06
  -8.178  0.697E-05  0.313E-05  0.285E-05  0.100E-05
  -8.078  0.460E-04  0.208E-04  0.186E-04  0.666E-05
  -7.978  0.235E-03  0.106E-03  0.938E-04  0.348E-04
  -7.878  0.933E-03  0.419E-03  0.369E-03  0.145E-03
  -7.778  0.292E-02  0.128E-02  0.114E-02  0.499E-03
  -7.678  0.730E-02  0.301E-02  0.284E-02  0.145E-02
  -7.578  0.150E-01  0.550E-02  0.583E-02  0.365E-02
  -7.478  0.262E-01  0.791E-02  0.102E-01  0.803E-02
  -7.378  0.403E-01  0.920E-02  0.158E-01  0.152E-01
  -7.278  0.562E-01  0.951E-02  0.221E-01  0.246E-01
  -7.178  0.721E-01  0.106E-01  0.280E-01  0.335E-01
  -7.078  0.862E-01  0.147E-01  0.326E-01  0.389E-01
  -6.978  0.981E-01  0.227E-01  0.356E-01  0.398E-01
  -6.878  0.108E+00  0.330E-01  0.374E-01  0.378E-01
  -6.778  0.116E+00  0.424E-01  0.381E-01  0.355E-01
  -6.678  0.119E+00  0.478E-01  0.371E-01  0.336E-01
  -6.578  0.111E+00  0.480E-01  0.331E-01  0.304E-01
  -6.478  0.949E-01  0.444E-01  0.260E-01  0.245E-01
  -6.378  0.744E-01  0.398E-01  0.176E-01  0.170E-01
  -6.278  0.577E-01  0.369E-01  0.105E-01  0.104E-01
  -6.178  0.495E-01  0.370E-01  0.625E-02  0.629E-02
  -6.078  0.499E-01  0.399E-01  0.498E-02  0.500E-02
  -5.978  0.565E-01  0.438E-01  0.639E-02  0.627E-02
  -5.878  0.671E-01  0.461E-01  0.108E-01  0.102E-01
  -5.778  0.823E-01  0.458E-01  0.190E-01  0.175E-01
  -5.678  0.105E+00  0.452E-01  0.310E-01  0.284E-01
  -5.578  0.133E+00  0.475E-01  0.442E-01  0.410E-01
  -5.478  0.157E+00  0.529E-01  0.533E-01  0.509E-01
  -5.378  0.165E+00  0.578E-01  0.538E-01  0.535E-01
  -5.278  0.152E+00  0.587E-01  0.459E-01  0.478E-01
  -5.178  0.126E+00  0.550E-01  0.342E-01  0.372E-01
  -5.078  0.984E-01  0.486E-01  0.235E-01  0.263E-01
  -4.978  0.767E-01  0.419E-01  0.165E-01  0.183E-01
  -4.878  0.635E-01  0.361E-01  0.133E-01  0.141E-01
  -4.778  0.569E-01  0.318E-01  0.125E-01  0.126E-01
  -4.678  0.539E-01  0.288E-01  0.127E-01  0.124E-01
  -4.578  0.526E-01  0.272E-01  0.129E-01  0.124E-01
  -4.478  0.525E-01  0.271E-01  0.129E-01  0.124E-01
  -4.378  0.539E-01  0.282E-01  0.130E-01  0.127E-01
  -4.278  0.563E-01  0.289E-01  0.135E-01  0.139E-01
  -4.178  0.577E-01  0.273E-01  0.143E-01  0.160E-01
  -4.078  0.567E-01  0.232E-01  0.152E-01  0.183E-01
  -3.978  0.538E-01  0.183E-01  0.157E-01  0.198E-01
  -3.878  0.506E-01  0.148E-01  0.159E-01  0.199E-01
  -3.778  0.491E-01  0.137E-01  0.162E-01  0.192E-01
  -3.678  0.493E-01  0.143E-01  0.166E-01  0.183E-01
  -3.578  0.495E-01  0.153E-01  0.169E-01  0.173E-01
  -3.478  0.485E-01  0.158E-01  0.166E-01  0.161E-01
  -3.378  0.467E-01  0.156E-01  0.161E-01  0.150E-01
  -3.278  0.460E-01  0.152E-01  0.161E-01  0.147E-01
  -3.178  0.478E-01  0.154E-01  0.169E-01  0.154E-01
  -3.078  0.519E-01  0.162E-01  0.184E-01  0.172E-01
  -2.978  0.573E-01  0.174E-01  0.203E-01  0.197E-01
  -2.878  0.634E-01  0.186E-01  0.224E-01  0.224E-01
  -2.778  0.695E-01  0.199E-01  0.246E-01  0.250E-01
  -2.678  0.747E-01  0.212E-01  0.265E-01  0.269E-01
  -2.578  0.770E-01  0.221E-01  0.273E-01  0.276E-01
  -2.478  0.745E-01  0.216E-01  0.264E-01  0.265E-01
  -2.378  0.671E-01  0.191E-01  0.240E-01  0.240E-01
  -2.278  0.567E-01  0.153E-01  0.210E-01  0.205E-01
  -2.178  0.460E-01  0.114E-01  0.179E-01  0.167E-01
  -2.078  0.365E-01  0.858E-02  0.148E-01  0.131E-01
  -1.978  0.286E-01  0.706E-02  0.117E-01  0.983E-02
  -1.878  0.220E-01  0.613E-02  0.867E-02  0.718E-02
  -1.778  0.159E-01  0.507E-02  0.583E-02  0.502E-02
  -1.678  0.105E-01  0.375E-02  0.350E-02  0.327E-02
  -1.578  0.629E-02  0.245E-02  0.187E-02  0.197E-02
  -1.478  0.374E-02  0.147E-02  0.103E-02  0.125E-02
  -1.378  0.291E-02  0.848E-03  0.915E-03  0.115E-02
  -1.278  0.367E-02  0.538E-03  0.146E-02  0.167E-02
  -1.178  0.586E-02  0.486E-03  0.257E-02  0.280E-02
  -1.078  0.908E-02  0.696E-03  0.399E-02  0.439E-02
  -0.978  0.128E-01  0.120E-02  0.540E-02  0.617E-02
  -0.878  0.166E-01  0.201E-02  0.674E-02  0.788E-02
  -0.778  0.205E-01  0.293E-02  0.822E-02  0.933E-02
  -0.678  0.237E-01  0.353E-02  0.989E-02  0.103E-01
  -0.578  0.250E-01  0.339E-02  0.112E-01  0.104E-01
  -0.478  0.230E-01  0.257E-02  0.111E-01  0.933E-02
  -0.378  0.179E-01  0.153E-02  0.925E-02  0.717E-02
  -0.278  0.115E-01  0.722E-03  0.622E-02  0.455E-02
  -0.178  0.591E-02  0.270E-03  0.331E-02  0.233E-02
  -0.078  0.240E-02  0.821E-04  0.138E-02  0.939E-03
   0.022  0.767E-03  0.271E-04  0.444E-03  0.296E-03
   0.122  0.236E-03  0.458E-04  0.115E-03  0.756E-04
   0.222  0.263E-03  0.186E-03  0.441E-04  0.326E-04
   0.322  0.815E-03  0.639E-03  0.959E-04  0.809E-04
   0.422  0.227E-02  0.172E-02  0.298E-03  0.261E-03
   0.522  0.507E-02  0.360E-02  0.772E-03  0.694E-03
   0.622  0.909E-02  0.594E-02  0.164E-02  0.151E-02
   0.722  0.134E-01  0.776E-02  0.290E-02  0.271E-02
   0.822  0.166E-01  0.822E-02  0.432E-02  0.408E-02
   0.922  0.181E-01  0.731E-02  0.554E-02  0.526E-02
   1.022  0.182E-01  0.589E-02  0.627E-02  0.600E-02
   1.122  0.175E-01  0.474E-02  0.651E-02  0.629E-02
   1.222  0.169E-01  0.410E-02  0.643E-02  0.638E-02
   1.322  0.166E-01  0.379E-02  0.632E-02  0.654E-02
   1.422  0.174E-01  0.369E-02  0.664E-02  0.710E-02
   1.522  0.206E-01  0.397E-02  0.802E-02  0.857E-02
   1.622  0.269E-01  0.490E-02  0.108E-01  0.112E-01
   1.722  0.352E-01  0.651E-02  0.143E-01  0.144E-01
   1.822  0.415E-01  0.824E-02  0.167E-01  0.166E-01
   1.922  0.419E-01  0.910E-02  0.165E-01  0.163E-01
   2.022  0.353E-01  0.838E-02  0.136E-01  0.133E-01
   2.122  0.246E-01  0.632E-02  0.924E-02  0.904E-02
   2.222  0.143E-01  0.389E-02  0.525E-02  0.511E-02
   2.322  0.693E-02  0.197E-02  0.252E-02  0.243E-02
   2.422  0.288E-02  0.845E-03  0.104E-02  0.989E-03
   2.522  0.103E-02  0.312E-03  0.375E-03  0.346E-03
   2.622  0.321E-03  0.994E-04  0.117E-03  0.104E-03
   2.722  0.847E-04  0.270E-04  0.309E-04  0.267E-04
   2.822  0.185E-04  0.608E-05  0.679E-05  0.566E-05
   2.922  0.327E-05  0.110E-05  0.120E-05  0.970E-06
   3.022  0.457E-06  0.157E-06  0.168E-06  0.132E-06
   3.122  0.498E-07  0.174E-07  0.183E-07  0.141E-07
