# E (eV)   ldos(E)   pdos(E)    pdos(E)    pdos(E)   
 -16.578  0.692E-07  0.439E-07  0.576E-08  0.195E-07
 -16.478  0.590E-06  0.368E-06  0.548E-07  0.167E-06
 -16.378  0.388E-05  0.237E-05  0.408E-06  0.111E-05
 -16.278  0.198E-04  0.117E-04  0.240E-05  0.570E-05
 -16.178  0.791E-04  0.449E-04  0.112E-04  0.229E-04
 -16.078  0.249E-03  0.133E-03  0.426E-04  0.727E-04
 -15.978  0.626E-03  0.309E-03  0.133E-03  0.184E-03
 -15.878  0.129E-02  0.569E-03  0.342E-03  0.380E-03
 -15.778  0.226E-02  0.859E-03  0.742E-03  0.657E-03
 -15.678  0.346E-02  0.113E-02  0.135E-02  0.982E-03
 -15.578  0.479E-02  0.142E-02  0.206E-02  0.131E-02
 -15.478  0.601E-02  0.179E-02  0.266E-02  0.157E-02
 -15.378  0.681E-02  0.218E-02  0.293E-02  0.169E-02
 -15.278  0.689E-02  0.238E-02  0.286E-02  0.165E-02
 -15.178  0.634E-02  0.223E-02  0.263E-02  0.148E-02
 -15.078  0.567E-02  0.184E-02  0.249E-02  0.133E-02
 -14.978  0.551E-02  0.152E-02  0.263E-02  0.136E-02
 -14.878  0.629E-02  0.152E-02  0.317E-02  0.161E-02
 -14.778  0.813E-02  0.196E-02  0.414E-02  0.203E-02
 -14.678  0.108E-01  0.281E-02  0.540E-02  0.255E-02
 -14.578  0.136E-01  0.388E-02  0.664E-02  0.308E-02
 -14.478  0.160E-01  0.494E-02  0.746E-02  0.362E-02
 -14.378  0.176E-01  0.583E-02  0.764E-02  0.416E-02
 -14.278  0.184E-01  0.646E-02  0.730E-02  0.465E-02
 -14.178  0.185E-01  0.659E-02  0.679E-02  0.509E-02
 -14.078  0.181E-01  0.614E-02  0.643E-02  0.555E-02
 -13.978  0.177E-01  0.530E-02  0.628E-02  0.616E-02
 -13.878  0.176E-01  0.451E-02  0.612E-02  0.699E-02
 -13.778  0.177E-01  0.411E-02  0.571E-02  0.792E-02
 -13.678  0.179E-01  0.417E-02  0.497E-02  0.874E-02
 -13.578  0.178E-01  0.457E-02  0.401E-02  0.925E-02
 -13.478  0.176E-01  0.515E-02  0.303E-02  0.945E-02
 -13.378  0.172E-01  0.562E-02  0.227E-02  0.932E-02
 -13.278  0.161E-01  0.554E-02  0.181E-02  0.871E-02
 -13.178  0.139E-01  0.467E-02  0.156E-02  0.764E-02
 -13.078  0.116E-01  0.332E-02  0.152E-02  0.671E-02
 -12.978  0.104E-01  0.216E-02  0.168E-02  0.657E-02
 -12.878  0.104E-01  0.151E-02  0.194E-02  0.699E-02
 -12.778  0.101E-01  0.121E-02  0.199E-02  0.691E-02
 -12.678  0.825E-02  0.946E-03  0.166E-02  0.564E-02
 -12.578  0.533E-02  0.619E-03  0.108E-02  0.362E-02
 -12.478  0.266E-02  0.319E-03  0.545E-03  0.180E-02
 -12.378  0.102E-02  0.126E-03  0.210E-03  0.685E-03
 -12.278  0.300E-03  0.382E-04  0.622E-04  0.200E-03
 -12.178  0.677E-04  0.885E-05  0.141E-04  0.448E-04
 -12.078  0.117E-04  0.157E-05  0.244E-05  0.768E-05
 -11.978  0.154E-05  0.212E-06  0.323E-06  0.101E-05
 -11.878  0.156E-06  0.219E-07  0.327E-07  0.101E-06
 -11.778  0.121E-07  0.172E-08  0.253E-08  0.781E-08
 -11.678  0.714E-09  0.104E-09  0.150E-09  0.460E-09
 -11.578  0.323E-10  0.477E-11  0.679E-11  0.207E-10
 -11.478  0.112E-11  0.167E-12  0.235E-12  0.714E-12
 -11.378  0.292E-13  0.448E-14  0.614E-14  0.185E-13
 -11.278  0.000E+00  0.000E+00  0.000E+00  0.000E+00
 -11.178  0.000E+00  0.000E+00  0.000E+00  0.000E+00
 -11.078  0.000E+00  0.000E+00  0.000E+00  0.000E+00
 -10.978  0.000E+00  0.000E+00  0.000E+00  0.000E+00
 -10.878  0.000E+00  0.000E+00  0.000E+00  0.000E+00
 -10.778  0.000E+00  0.000E+00  0.000E+00  0.000E+00
 -10.678  0.000E+00  0.000E+00  0.000E+00  0.000E+00
 -10.578  0.000E+00  0.000E+00  0.000E+00  0.000E+00
 -10.478  0.000E+00  0.000E+00  0.000E+00  0.000E+00
 -10.378  0.000E+00  0.000E+00  0.000E+00  0.000E+00
 -10.278  0.000E+00  0.000E+00  0.000E+00  0.000E+00
 -10.178  0.000E+00  0.000E+00  0.000E+00  0.000E+00
 -10.078  0.000E+00  0.000E+00  0.000E+00  0.000E+00
  -9.978  0.000E+00  0.000E+00  0.000E+00  0.000E+00
  -9.878  0.000E+00  0.000E+00  0.000E+00  0.000E+00
  -9.778  0.000E+00  0.000E+00  0.000E+00  0.000E+00
  -9.678  0.000E+00  0.000E+00  0.000E+00  0.000E+00
  -9.578  0.000E+00  0.000E+00  0.000E+00  0.000E+00
  -9.478  0.000E+00  0.000E+00  0.000E+00  0.000E+00
  -9.378  0.000E+00  0.000E+00  0.000E+00  0.000E+00
  -9.278  0.000E+00  0.000E+00  0.000E+00  0.000E+00
  -9.178  0.000E+00  0.000E+00  0.000E+00  0.000E+00
  -9.078  0.000E+00  0.000E+00  0.000E+00  0.000E+00
  -8.978  0.000E+00  0.000E+00  0.000E+00  0.000E+00
  -8.878  0.120E-13  0.128E-16  0.111E-13  0.972E-15
  -8.778  0.584E-12  0.799E-15  0.535E-12  0.480E-13
  -8.678  0.188E-10  0.267E-13  0.172E-10  0.156E-11
  -8.578  0.464E-09  0.687E-12  0.425E-09  0.388E-10
  -8.478  0.877E-08  0.136E-10  0.801E-08  0.742E-09
  -8.378  0.127E-06  0.207E-09  0.116E-06  0.109E-07
  -8.278  0.142E-05  0.245E-08  0.129E-05  0.125E-06
  -8.178  0.121E-04  0.225E-07  0.110E-04  0.110E-05
  -8.078  0.800E-04  0.163E-06  0.722E-04  0.766E-05
  -7.978  0.409E-03  0.956E-06  0.366E-03  0.422E-04
  -7.878  0.163E-02  0.471E-05  0.144E-02  0.187E-03
  -7.778  0.515E-02  0.208E-04  0.445E-02  0.685E-03
  -7.678  0.131E-01  0.874E-04  0.109E-01  0.211E-02
  -7.578  0.277E-01  0.357E-03  0.218E-01  0.553E-02
  -7.478  0.509E-01  0.135E-02  0.372E-01  0.124E-01
  -7.378  0.849E-01  0.451E-02  0.565E-01  0.239E-01
  -7.278  0.133E+00  0.126E-01  0.800E-01  0.399E-01
  -7.178  0.196E+00  0.294E-01  0.107E+00  0.594E-01
  -7.078  0.273E+00  0.560E-01  0.135E+00  0.819E-01
  -6.978  0.354E+00  0.883E-01  0.158E+00  0.108E+00
  -6.878  0.423E+00  0.116E+00  0.172E+00  0.135E+00
  -6.778  0.472E+00  0.132E+00  0.181E+00  0.158E+00
  -6.678  0.501E+00  0.135E+00  0.194E+00  0.172E+00
  -6.578  0.524E+00  0.137E+00  0.213E+00  0.174E+00
  -6.478  0.550E+00  0.145E+00  0.233E+00  0.171E+00
  -6.378  0.565E+00  0.158E+00  0.239E+00  0.168E+00
  -6.278  0.546E+00  0.162E+00  0.221E+00  0.163E+00
  -6.178  0.488E+00  0.150E+00  0.188E+00  0.150E+00
  -6.078  0.414E+00  0.125E+00  0.158E+00  0.130E+00
  -5.978  0.361E+00  0.104E+00  0.148E+00  0.109E+00
  -5.878  0.349E+00  0.981E-01  0.157E+00  0.941E-01
  -5.778  0.369E+00  0.109E+00  0.171E+00  0.900E-01
  -5.678  0.401E+00  0.129E+00  0.175E+00  0.971E-01
  -5.578  0.433E+00  0.148E+00  0.170E+00  0.115E+00
  -5.478  0.469E+00  0.164E+00  0.166E+00  0.139E+00
  -5.378  0.512E+00  0.181E+00  0.166E+00  0.165E+00
  -5.278  0.557E+00  0.204E+00  0.167E+00  0.186E+00
  -5.178  0.592E+00  0.234E+00  0.162E+00  0.197E+00
  -5.078  0.619E+00  0.268E+00  0.157E+00  0.194E+00
  -4.978  0.654E+00  0.309E+00  0.163E+00  0.182E+00
  -4.878  0.720E+00  0.358E+00  0.190E+00  0.172E+00
  -4.778  0.815E+00  0.405E+00  0.230E+00  0.179E+00
  -4.678  0.905E+00  0.427E+00  0.270E+00  0.208E+00
  -4.578  0.947E+00  0.408E+00  0.293E+00  0.245E+00
  -4.478  0.917E+00  0.352E+00  0.299E+00  0.266E+00
  -4.378  0.829E+00  0.282E+00  0.295E+00  0.252E+00
  -4.278  0.714E+00  0.219E+00  0.286E+00  0.208E+00
  -4.178  0.603E+00  0.174E+00  0.271E+00  0.158E+00
  -4.078  0.520E+00  0.148E+00  0.248E+00  0.123E+00
  -3.978  0.472E+00  0.139E+00  0.219E+00  0.114E+00
  -3.878  0.454E+00  0.138E+00  0.191E+00  0.125E+00
  -3.778  0.453E+00  0.140E+00  0.169E+00  0.143E+00
  -3.678  0.460E+00  0.142E+00  0.154E+00  0.163E+00
  -3.578  0.477E+00  0.145E+00  0.150E+00  0.182E+00
  -3.478  0.510E+00  0.149E+00  0.162E+00  0.199E+00
  -3.378  0.560E+00  0.156E+00  0.191E+00  0.212E+00
  -3.278  0.630E+00  0.170E+00  0.241E+00  0.220E+00
  -3.178  0.725E+00  0.193E+00  0.310E+00  0.222E+00
  -3.078  0.833E+00  0.227E+00  0.384E+00  0.221E+00
  -2.978  0.922E+00  0.265E+00  0.436E+00  0.221E+00
  -2.878  0.964E+00  0.298E+00  0.444E+00  0.221E+00
  -2.778  0.959E+00  0.325E+00  0.407E+00  0.226E+00
  -2.678  0.930E+00  0.348E+00  0.347E+00  0.235E+00
  -2.578  0.896E+00  0.365E+00  0.283E+00  0.248E+00
  -2.478  0.855E+00  0.371E+00  0.230E+00  0.255E+00
  -2.378  0.794E+00  0.356E+00  0.187E+00  0.251E+00
  -2.278  0.711E+00  0.321E+00  0.153E+00  0.237E+00
  -2.178  0.629E+00  0.279E+00  0.131E+00  0.219E+00
  -2.078  0.574E+00  0.247E+00  0.125E+00  0.202E+00
  -1.978  0.548E+00  0.228E+00  0.130E+00  0.189E+00
  -1.878  0.522E+00  0.210E+00  0.136E+00  0.177E+00
  -1.778  0.467E+00  0.179E+00  0.126E+00  0.162E+00
  -1.678  0.388E+00  0.140E+00  0.981E-01  0.150E+00
  -1.578  0.316E+00  0.106E+00  0.618E-01  0.148E+00
  -1.478  0.273E+00  0.862E-01  0.314E-01  0.155E+00
  -1.378  0.266E+00  0.809E-01  0.132E-01  0.171E+00
  -1.278  0.294E+00  0.861E-01  0.538E-02  0.203E+00
  -1.178  0.365E+00  0.100E+00  0.375E-02  0.261E+00
  -1.078  0.476E+00  0.123E+00  0.585E-02  0.347E+00
  -0.978  0.609E+00  0.152E+00  0.108E-01  0.446E+00
  -0.878  0.731E+00  0.177E+00  0.176E-01  0.537E+00
  -0.778  0.807E+00  0.183E+00  0.242E-01  0.600E+00
  -0.678  0.808E+00  0.164E+00  0.283E-01  0.616E+00
  -0.578  0.724E+00  0.126E+00  0.284E-01  0.570E+00
  -0.478  0.571E+00  0.849E-01  0.244E-01  0.462E+00
  -0.378  0.389E+00  0.510E-01  0.178E-01  0.320E+00
  -0.278  0.224E+00  0.272E-01  0.107E-01  0.186E+00
  -0.178  0.106E+00  0.125E-01  0.523E-02  0.883E-01
  -0.078  0.405E-01  0.471E-02  0.203E-02  0.337E-01
   0.022  0.123E-01  0.145E-02  0.663E-03  0.102E-01
   0.122  0.335E-02  0.496E-03  0.399E-03  0.246E-02
   0.222  0.256E-02  0.751E-03  0.108E-02  0.726E-03
   0.322  0.703E-02  0.240E-02  0.348E-02  0.116E-02
   0.422  0.194E-01  0.674E-02  0.930E-02  0.334E-02
   0.522  0.446E-01  0.158E-01  0.207E-01  0.813E-02
   0.622  0.869E-01  0.316E-01  0.393E-01  0.161E-01
   0.722  0.147E+00  0.545E-01  0.658E-01  0.267E-01
   0.822  0.221E+00  0.829E-01  0.994E-01  0.386E-01
   0.922  0.301E+00  0.112E+00  0.137E+00  0.521E-01
   1.022  0.379E+00  0.136E+00  0.173E+00  0.695E-01
   1.122  0.447E+00  0.152E+00  0.202E+00  0.920E-01
   1.222  0.496E+00  0.159E+00  0.220E+00  0.116E+00
   1.322  0.521E+00  0.158E+00  0.225E+00  0.138E+00
   1.422  0.530E+00  0.152E+00  0.221E+00  0.157E+00
   1.522  0.539E+00  0.146E+00  0.214E+00  0.178E+00
   1.622  0.554E+00  0.147E+00  0.207E+00  0.200E+00
   1.722  0.559E+00  0.151E+00  0.197E+00  0.212E+00
   1.822  0.530E+00  0.149E+00  0.180E+00  0.201E+00
   1.922  0.453E+00  0.134E+00  0.151E+00  0.167E+00
   2.022  0.341E+00  0.107E+00  0.113E+00  0.121E+00
   2.122  0.224E+00  0.730E-01  0.751E-01  0.763E-01
   2.222  0.127E+00  0.421E-01  0.434E-01  0.419E-01
   2.322  0.619E-01  0.201E-01  0.217E-01  0.201E-01
   2.422  0.257E-01  0.792E-02  0.938E-02  0.835E-02
   2.522  0.903E-02  0.256E-02  0.346E-02  0.301E-02
   2.622  0.269E-02  0.685E-03  0.107E-02  0.930E-03
   2.722  0.668E-03  0.152E-03  0.275E-03  0.241E-03
   2.822  0.137E-03  0.280E-04  0.572E-04  0.514E-04
   2.922  0.226E-04  0.427E-05  0.952E-05  0.879E-05
   3.022  0.297E-05  0.531E-06  0.125E-05  0.119E-05
   3.122  0.308E-06  0.529E-07  0.129E-06  0.126E-06
