# E (eV)   ldos(E)   pdos(E)   
 -16.398  0.216E-05  0.216E-05
 -16.298  0.192E-04  0.192E-04
 -16.198  0.132E-03  0.132E-03
 -16.098  0.703E-03  0.703E-03
 -15.998  0.292E-02  0.292E-02
 -15.898  0.952E-02  0.952E-02
 -15.798  0.245E-01  0.245E-01
 -15.698  0.504E-01  0.504E-01
 -15.598  0.843E-01  0.843E-01
 -15.498  0.117E+00  0.117E+00
 -15.398  0.140E+00  0.140E+00
 -15.298  0.149E+00  0.149E+00
 -15.198  0.147E+00  0.147E+00
 -15.098  0.139E+00  0.139E+00
 -14.998  0.130E+00  0.130E+00
 -14.898  0.120E+00  0.120E+00
 -14.798  0.112E+00  0.112E+00
 -14.698  0.103E+00  0.103E+00
 -14.598  0.957E-01  0.957E-01
 -14.498  0.885E-01  0.885E-01
 -14.398  0.818E-01  0.818E-01
 -14.298  0.755E-01  0.755E-01
 -14.198  0.697E-01  0.697E-01
 -14.098  0.642E-01  0.642E-01
 -13.998  0.592E-01  0.592E-01
 -13.898  0.546E-01  0.546E-01
 -13.798  0.502E-01  0.502E-01
 -13.698  0.454E-01  0.454E-01
 -13.598  0.393E-01  0.393E-01
 -13.498  0.314E-01  0.314E-01
 -13.398  0.224E-01  0.224E-01
 -13.298  0.139E-01  0.139E-01
 -13.198  0.729E-02  0.729E-02
 -13.098  0.320E-02  0.320E-02
 -12.998  0.117E-02  0.117E-02
 -12.898  0.348E-03  0.348E-03
 -12.798  0.844E-04  0.844E-04
 -12.698  0.164E-04  0.164E-04
 -12.598  0.255E-05  0.255E-05
 -12.498  0.314E-06  0.314E-06
 -12.398  0.303E-07  0.303E-07
 -12.298  0.229E-08  0.229E-08
 -12.198  0.135E-09  0.135E-09
 -12.098  0.616E-11  0.616E-11
 -11.998  0.217E-12  0.217E-12
 -11.898  0.557E-14  0.557E-14
 -11.798  0.367E-16  0.367E-16
 -11.698  0.140E-20  0.140E-20
 -11.598  0.336E-22  0.336E-22
 -11.498  0.000E+00  0.000E+00
 -11.398  0.000E+00  0.000E+00
 -11.298  0.000E+00  0.000E+00
 -11.198  0.000E+00  0.000E+00
 -11.098  0.000E+00  0.000E+00
 -10.998  0.000E+00  0.000E+00
 -10.898  0.000E+00  0.000E+00
 -10.798  0.000E+00  0.000E+00
 -10.698  0.000E+00  0.000E+00
 -10.598  0.000E+00  0.000E+00
 -10.498  0.000E+00  0.000E+00
 -10.398  0.000E+00  0.000E+00
 -10.298  0.000E+00  0.000E+00
 -10.198  0.000E+00  0.000E+00
 -10.098  0.000E+00  0.000E+00
  -9.998  0.000E+00  0.000E+00
  -9.898  0.000E+00  0.000E+00
  -9.798  0.000E+00  0.000E+00
  -9.698  0.000E+00  0.000E+00
  -9.598  0.000E+00  0.000E+00
  -9.498  0.000E+00  0.000E+00
  -9.398  0.000E+00  0.000E+00
  -9.298  0.000E+00  0.000E+00
  -9.198  0.000E+00  0.000E+00
  -9.098  0.000E+00  0.000E+00
  -8.998  0.000E+00  0.000E+00
  -8.898  0.000E+00  0.000E+00
  -8.798  0.000E+00  0.000E+00
  -8.698  0.308E-14  0.308E-14
  -8.598  0.147E-12  0.147E-12
  -8.498  0.486E-11  0.486E-11
  -8.398  0.123E-09  0.123E-09
  -8.298  0.238E-08  0.238E-08
  -8.198  0.354E-07  0.354E-07
  -8.098  0.408E-06  0.408E-06
  -7.998  0.362E-05  0.362E-05
  -7.898  0.249E-04  0.249E-04
  -7.798  0.133E-03  0.133E-03
  -7.698  0.558E-03  0.558E-03
  -7.598  0.184E-02  0.184E-02
  -7.498  0.482E-02  0.482E-02
  -7.398  0.102E-01  0.102E-01
  -7.298  0.179E-01  0.179E-01
  -7.198  0.267E-01  0.267E-01
  -7.098  0.349E-01  0.349E-01
  -6.998  0.417E-01  0.417E-01
  -6.898  0.467E-01  0.467E-01
  -6.798  0.496E-01  0.496E-01
  -6.698  0.495E-01  0.495E-01
  -6.598  0.454E-01  0.454E-01
  -6.498  0.375E-01  0.375E-01
  -6.398  0.276E-01  0.276E-01
  -6.298  0.182E-01  0.182E-01
  -6.198  0.110E-01  0.110E-01
  -6.098  0.629E-02  0.629E-02
  -5.998  0.347E-02  0.347E-02
  -5.898  0.187E-02  0.187E-02
  -5.798  0.117E-02  0.117E-02
  -5.698  0.148E-02  0.148E-02
  -5.598  0.343E-02  0.343E-02
  -5.498  0.823E-02  0.823E-02
  -5.398  0.172E-01  0.172E-01
  -5.298  0.305E-01  0.305E-01
  -5.198  0.451E-01  0.451E-01
  -5.098  0.555E-01  0.555E-01
  -4.998  0.572E-01  0.572E-01
  -4.898  0.498E-01  0.498E-01
  -4.798  0.377E-01  0.377E-01
  -4.698  0.261E-01  0.261E-01
  -4.598  0.176E-01  0.176E-01
  -4.498  0.125E-01  0.125E-01
  -4.398  0.959E-02  0.959E-02
  -4.298  0.776E-02  0.776E-02
  -4.198  0.645E-02  0.645E-02
  -4.098  0.541E-02  0.541E-02
  -3.998  0.452E-02  0.452E-02
  -3.898  0.374E-02  0.374E-02
  -3.798  0.316E-02  0.316E-02
  -3.698  0.282E-02  0.282E-02
  -3.598  0.264E-02  0.264E-02
  -3.498  0.254E-02  0.254E-02
  -3.398  0.254E-02  0.254E-02
  -3.298  0.260E-02  0.260E-02
  -3.198  0.263E-02  0.263E-02
  -3.098  0.257E-02  0.257E-02
  -2.998  0.244E-02  0.244E-02
  -2.898  0.226E-02  0.226E-02
  -2.798  0.202E-02  0.202E-02
  -2.698  0.176E-02  0.176E-02
  -2.598  0.153E-02  0.153E-02
  -2.498  0.140E-02  0.140E-02
  -2.398  0.144E-02  0.144E-02
  -2.298  0.172E-02  0.172E-02
  -2.198  0.220E-02  0.220E-02
  -2.098  0.276E-02  0.276E-02
  -1.998  0.327E-02  0.327E-02
  -1.898  0.365E-02  0.365E-02
  -1.798  0.387E-02  0.387E-02
  -1.698  0.395E-02  0.395E-02
  -1.598  0.387E-02  0.387E-02
  -1.498  0.362E-02  0.362E-02
  -1.398  0.317E-02  0.317E-02
  -1.298  0.251E-02  0.251E-02
  -1.198  0.173E-02  0.173E-02
  -1.098  0.102E-02  0.102E-02
  -0.998  0.490E-03  0.490E-03
  -0.898  0.192E-03  0.192E-03
  -0.798  0.602E-04  0.602E-04
  -0.698  0.150E-04  0.150E-04
  -0.598  0.296E-05  0.296E-05
  -0.498  0.459E-06  0.459E-06
  -0.398  0.562E-07  0.562E-07
  -0.298  0.540E-08  0.540E-08
  -0.198  0.542E-09  0.542E-09
  -0.098  0.241E-08  0.241E-08
   0.002  0.323E-07  0.323E-07
   0.102  0.340E-06  0.340E-06
   0.202  0.278E-05  0.278E-05
   0.302  0.177E-04  0.177E-04
   0.402  0.890E-04  0.890E-04
   0.502  0.354E-03  0.354E-03
   0.602  0.113E-02  0.113E-02
   0.702  0.295E-02  0.295E-02
   0.802  0.638E-02  0.638E-02
   0.902  0.116E-01  0.116E-01
   1.002  0.181E-01  0.181E-01
   1.102  0.245E-01  0.245E-01
   1.202  0.292E-01  0.292E-01
   1.302  0.316E-01  0.316E-01
   1.402  0.325E-01  0.325E-01
   1.502  0.332E-01  0.332E-01
   1.602  0.339E-01  0.339E-01
   1.702  0.340E-01  0.340E-01
   1.802  0.324E-01  0.324E-01
   1.902  0.287E-01  0.287E-01
   2.002  0.231E-01  0.231E-01
   2.102  0.165E-01  0.165E-01
   2.202  0.100E-01  0.100E-01
   2.302  0.509E-02  0.509E-02
   2.402  0.210E-02  0.210E-02
   2.502  0.700E-03  0.700E-03
   2.602  0.186E-03  0.186E-03
   2.702  0.395E-04  0.395E-04
   2.802  0.671E-05  0.671E-05
   2.902  0.911E-06  0.911E-06
   3.002  0.993E-07  0.993E-07
   3.102  0.870E-08  0.870E-08
   3.202  0.612E-09  0.612E-09
