# E (eV)   ldos(E)   pdos(E)   
 -16.398  0.141E-05  0.141E-05
 -16.298  0.126E-04  0.126E-04
 -16.198  0.869E-04  0.869E-04
 -16.098  0.467E-03  0.467E-03
 -15.998  0.196E-02  0.196E-02
 -15.898  0.644E-02  0.644E-02
 -15.798  0.168E-01  0.168E-01
 -15.698  0.353E-01  0.353E-01
 -15.598  0.607E-01  0.607E-01
 -15.498  0.878E-01  0.878E-01
 -15.398  0.110E+00  0.110E+00
 -15.298  0.126E+00  0.126E+00
 -15.198  0.135E+00  0.135E+00
 -15.098  0.141E+00  0.141E+00
 -14.998  0.146E+00  0.146E+00
 -14.898  0.152E+00  0.152E+00
 -14.798  0.160E+00  0.160E+00
 -14.698  0.172E+00  0.172E+00
 -14.598  0.194E+00  0.194E+00
 -14.498  0.232E+00  0.232E+00
 -14.398  0.286E+00  0.286E+00
 -14.298  0.351E+00  0.351E+00
 -14.198  0.417E+00  0.417E+00
 -14.098  0.480E+00  0.480E+00
 -13.998  0.541E+00  0.541E+00
 -13.898  0.610E+00  0.610E+00
 -13.798  0.696E+00  0.696E+00
 -13.698  0.796E+00  0.796E+00
 -13.598  0.900E+00  0.900E+00
 -13.498  0.985E+00  0.985E+00
 -13.398  0.103E+01  0.103E+01
 -13.298  0.102E+01  0.102E+01
 -13.198  0.929E+00  0.929E+00
 -13.098  0.766E+00  0.766E+00
 -12.998  0.553E+00  0.553E+00
 -12.898  0.340E+00  0.340E+00
 -12.798  0.174E+00  0.174E+00
 -12.698  0.731E-01  0.731E-01
 -12.598  0.247E-01  0.247E-01
 -12.498  0.666E-02  0.666E-02
 -12.398  0.141E-02  0.141E-02
 -12.298  0.236E-03  0.236E-03
 -12.198  0.306E-04  0.306E-04
 -12.098  0.308E-05  0.308E-05
 -11.998  0.240E-06  0.240E-06
 -11.898  0.144E-07  0.144E-07
 -11.798  0.669E-09  0.669E-09
 -11.698  0.238E-10  0.238E-10
 -11.598  0.634E-12  0.634E-12
 -11.498  0.000E+00  0.000E+00
 -11.398  0.000E+00  0.000E+00
 -11.298  0.000E+00  0.000E+00
 -11.198  0.000E+00  0.000E+00
 -11.098  0.000E+00  0.000E+00
 -10.998  0.000E+00  0.000E+00
 -10.898  0.000E+00  0.000E+00
 -10.798  0.000E+00  0.000E+00
 -10.698  0.000E+00  0.000E+00
 -10.598  0.000E+00  0.000E+00
 -10.498  0.000E+00  0.000E+00
 -10.398  0.000E+00  0.000E+00
 -10.298  0.000E+00  0.000E+00
 -10.198  0.000E+00  0.000E+00
 -10.098  0.000E+00  0.000E+00
  -9.998  0.000E+00  0.000E+00
  -9.898  0.000E+00  0.000E+00
  -9.798  0.000E+00  0.000E+00
  -9.698  0.000E+00  0.000E+00
  -9.598  0.000E+00  0.000E+00
  -9.498  0.000E+00  0.000E+00
  -9.398  0.000E+00  0.000E+00
  -9.298  0.000E+00  0.000E+00
  -9.198  0.000E+00  0.000E+00
  -9.098  0.000E+00  0.000E+00
  -8.998  0.000E+00  0.000E+00
  -8.898  0.000E+00  0.000E+00
  -8.798  0.000E+00  0.000E+00
  -8.698  0.409E-15  0.409E-15
  -8.598  0.196E-13  0.196E-13
  -8.498  0.648E-12  0.648E-12
  -8.398  0.164E-10  0.164E-10
  -8.298  0.318E-09  0.318E-09
  -8.198  0.475E-08  0.475E-08
  -8.098  0.548E-07  0.548E-07
  -7.998  0.489E-06  0.489E-06
  -7.898  0.339E-05  0.339E-05
  -7.798  0.183E-04  0.183E-04
  -7.698  0.780E-04  0.780E-04
  -7.598  0.265E-03  0.265E-03
  -7.498  0.728E-03  0.728E-03
  -7.398  0.166E-02  0.166E-02
  -7.298  0.324E-02  0.324E-02
  -7.198  0.554E-02  0.554E-02
  -7.098  0.846E-02  0.846E-02
  -6.998  0.117E-01  0.117E-01
  -6.898  0.149E-01  0.149E-01
  -6.798  0.180E-01  0.180E-01
  -6.698  0.209E-01  0.209E-01
  -6.598  0.237E-01  0.237E-01
  -6.498  0.257E-01  0.257E-01
  -6.398  0.259E-01  0.259E-01
  -6.298  0.240E-01  0.240E-01
  -6.198  0.205E-01  0.205E-01
  -6.098  0.166E-01  0.166E-01
  -5.998  0.134E-01  0.134E-01
  -5.898  0.115E-01  0.115E-01
  -5.798  0.114E-01  0.114E-01
  -5.698  0.146E-01  0.146E-01
  -5.598  0.242E-01  0.242E-01
  -5.498  0.426E-01  0.426E-01
  -5.398  0.695E-01  0.695E-01
  -5.298  0.992E-01  0.992E-01
  -5.198  0.122E+00  0.122E+00
  -5.098  0.131E+00  0.131E+00
  -4.998  0.124E+00  0.124E+00
  -4.898  0.105E+00  0.105E+00
  -4.798  0.819E-01  0.819E-01
  -4.698  0.623E-01  0.623E-01
  -4.598  0.482E-01  0.482E-01
  -4.498  0.384E-01  0.384E-01
  -4.398  0.307E-01  0.307E-01
  -4.298  0.241E-01  0.241E-01
  -4.198  0.189E-01  0.189E-01
  -4.098  0.151E-01  0.151E-01
  -3.998  0.126E-01  0.126E-01
  -3.898  0.109E-01  0.109E-01
  -3.798  0.985E-02  0.985E-02
  -3.698  0.978E-02  0.978E-02
  -3.598  0.111E-01  0.111E-01
  -3.498  0.149E-01  0.149E-01
  -3.398  0.230E-01  0.230E-01
  -3.298  0.360E-01  0.360E-01
  -3.198  0.513E-01  0.513E-01
  -3.098  0.638E-01  0.638E-01
  -2.998  0.688E-01  0.688E-01
  -2.898  0.653E-01  0.653E-01
  -2.798  0.565E-01  0.565E-01
  -2.698  0.466E-01  0.466E-01
  -2.598  0.385E-01  0.385E-01
  -2.498  0.326E-01  0.326E-01
  -2.398  0.286E-01  0.286E-01
  -2.298  0.262E-01  0.262E-01
  -2.198  0.252E-01  0.252E-01
  -2.098  0.250E-01  0.250E-01
  -1.998  0.248E-01  0.248E-01
  -1.898  0.237E-01  0.237E-01
  -1.798  0.212E-01  0.212E-01
  -1.698  0.178E-01  0.178E-01
  -1.598  0.144E-01  0.144E-01
  -1.498  0.113E-01  0.113E-01
  -1.398  0.871E-02  0.871E-02
  -1.298  0.627E-02  0.627E-02
  -1.198  0.403E-02  0.403E-02
  -1.098  0.220E-02  0.220E-02
  -0.998  0.989E-03  0.989E-03
  -0.898  0.357E-03  0.357E-03
  -0.798  0.102E-03  0.102E-03
  -0.698  0.230E-04  0.230E-04
  -0.598  0.402E-05  0.402E-05
  -0.498  0.546E-06  0.546E-06
  -0.398  0.573E-07  0.573E-07
  -0.298  0.465E-08  0.465E-08
  -0.198  0.338E-09  0.338E-09
  -0.098  0.925E-09  0.925E-09
   0.002  0.133E-07  0.133E-07
   0.102  0.151E-06  0.151E-06
   0.202  0.132E-05  0.132E-05
   0.302  0.898E-05  0.898E-05
   0.402  0.477E-04  0.477E-04
   0.502  0.199E-03  0.199E-03
   0.602  0.655E-03  0.655E-03
   0.702  0.173E-02  0.173E-02
   0.802  0.369E-02  0.369E-02
   0.902  0.645E-02  0.645E-02
   1.002  0.942E-02  0.942E-02
   1.102  0.117E-01  0.117E-01
   1.202  0.131E-01  0.131E-01
   1.302  0.143E-01  0.143E-01
   1.402  0.177E-01  0.177E-01
   1.502  0.253E-01  0.253E-01
   1.602  0.367E-01  0.367E-01
   1.702  0.479E-01  0.479E-01
   1.802  0.538E-01  0.538E-01
   1.902  0.518E-01  0.518E-01
   2.002  0.430E-01  0.430E-01
   2.102  0.308E-01  0.308E-01
   2.202  0.189E-01  0.189E-01
   2.302  0.974E-02  0.974E-02
   2.402  0.411E-02  0.411E-02
   2.502  0.139E-02  0.139E-02
   2.602  0.376E-03  0.376E-03
   2.702  0.797E-04  0.797E-04
   2.802  0.133E-04  0.133E-04
   2.902  0.173E-05  0.173E-05
   3.002  0.178E-06  0.178E-06
   3.102  0.145E-07  0.145E-07
   3.202  0.929E-09  0.929E-09
