# E (eV)   ldos(E)   pdos(E)   
 -16.398  0.216E-05  0.216E-05
 -16.298  0.192E-04  0.192E-04
 -16.198  0.132E-03  0.132E-03
 -16.098  0.704E-03  0.704E-03
 -15.998  0.293E-02  0.293E-02
 -15.898  0.953E-02  0.953E-02
 -15.798  0.245E-01  0.245E-01
 -15.698  0.505E-01  0.505E-01
 -15.598  0.844E-01  0.844E-01
 -15.498  0.117E+00  0.117E+00
 -15.398  0.140E+00  0.140E+00
 -15.298  0.149E+00  0.149E+00
 -15.198  0.147E+00  0.147E+00
 -15.098  0.139E+00  0.139E+00
 -14.998  0.130E+00  0.130E+00
 -14.898  0.121E+00  0.121E+00
 -14.798  0.112E+00  0.112E+00
 -14.698  0.103E+00  0.103E+00
 -14.598  0.957E-01  0.957E-01
 -14.498  0.885E-01  0.885E-01
 -14.398  0.818E-01  0.818E-01
 -14.298  0.755E-01  0.755E-01
 -14.198  0.696E-01  0.696E-01
 -14.098  0.641E-01  0.641E-01
 -13.998  0.590E-01  0.590E-01
 -13.898  0.543E-01  0.543E-01
 -13.798  0.499E-01  0.499E-01
 -13.698  0.450E-01  0.450E-01
 -13.598  0.390E-01  0.390E-01
 -13.498  0.313E-01  0.313E-01
 -13.398  0.224E-01  0.224E-01
 -13.298  0.139E-01  0.139E-01
 -13.198  0.736E-02  0.736E-02
 -13.098  0.325E-02  0.325E-02
 -12.998  0.118E-02  0.118E-02
 -12.898  0.354E-03  0.354E-03
 -12.798  0.857E-04  0.857E-04
 -12.698  0.167E-04  0.167E-04
 -12.598  0.259E-05  0.259E-05
 -12.498  0.318E-06  0.318E-06
 -12.398  0.307E-07  0.307E-07
 -12.298  0.232E-08  0.232E-08
 -12.198  0.136E-09  0.136E-09
 -12.098  0.623E-11  0.623E-11
 -11.998  0.220E-12  0.220E-12
 -11.898  0.562E-14  0.562E-14
 -11.798  0.370E-16  0.370E-16
 -11.698  0.992E-21  0.992E-21
 -11.598  0.232E-22  0.232E-22
 -11.498  0.000E+00  0.000E+00
 -11.398  0.000E+00  0.000E+00
 -11.298  0.000E+00  0.000E+00
 -11.198  0.000E+00  0.000E+00
 -11.098  0.000E+00  0.000E+00
 -10.998  0.000E+00  0.000E+00
 -10.898  0.000E+00  0.000E+00
 -10.798  0.000E+00  0.000E+00
 -10.698  0.000E+00  0.000E+00
 -10.598  0.000E+00  0.000E+00
 -10.498  0.000E+00  0.000E+00
 -10.398  0.000E+00  0.000E+00
 -10.298  0.000E+00  0.000E+00
 -10.198  0.000E+00  0.000E+00
 -10.098  0.000E+00  0.000E+00
  -9.998  0.000E+00  0.000E+00
  -9.898  0.000E+00  0.000E+00
  -9.798  0.000E+00  0.000E+00
  -9.698  0.000E+00  0.000E+00
  -9.598  0.000E+00  0.000E+00
  -9.498  0.000E+00  0.000E+00
  -9.398  0.000E+00  0.000E+00
  -9.298  0.000E+00  0.000E+00
  -9.198  0.000E+00  0.000E+00
  -9.098  0.000E+00  0.000E+00
  -8.998  0.000E+00  0.000E+00
  -8.898  0.000E+00  0.000E+00
  -8.798  0.000E+00  0.000E+00
  -8.698  0.310E-14  0.310E-14
  -8.598  0.148E-12  0.148E-12
  -8.498  0.490E-11  0.490E-11
  -8.398  0.124E-09  0.124E-09
  -8.298  0.240E-08  0.240E-08
  -8.198  0.358E-07  0.358E-07
  -8.098  0.411E-06  0.411E-06
  -7.998  0.366E-05  0.366E-05
  -7.898  0.252E-04  0.252E-04
  -7.798  0.135E-03  0.135E-03
  -7.698  0.564E-03  0.564E-03
  -7.598  0.186E-02  0.186E-02
  -7.498  0.487E-02  0.487E-02
  -7.398  0.103E-01  0.103E-01
  -7.298  0.180E-01  0.180E-01
  -7.198  0.268E-01  0.268E-01
  -7.098  0.350E-01  0.350E-01
  -6.998  0.417E-01  0.417E-01
  -6.898  0.467E-01  0.467E-01
  -6.798  0.496E-01  0.496E-01
  -6.698  0.494E-01  0.494E-01
  -6.598  0.454E-01  0.454E-01
  -6.498  0.375E-01  0.375E-01
  -6.398  0.276E-01  0.276E-01
  -6.298  0.182E-01  0.182E-01
  -6.198  0.110E-01  0.110E-01
  -6.098  0.633E-02  0.633E-02
  -5.998  0.350E-02  0.350E-02
  -5.898  0.188E-02  0.188E-02
  -5.798  0.118E-02  0.118E-02
  -5.698  0.149E-02  0.149E-02
  -5.598  0.345E-02  0.345E-02
  -5.498  0.827E-02  0.827E-02
  -5.398  0.173E-01  0.173E-01
  -5.298  0.305E-01  0.305E-01
  -5.198  0.450E-01  0.450E-01
  -5.098  0.554E-01  0.554E-01
  -4.998  0.569E-01  0.569E-01
  -4.898  0.496E-01  0.496E-01
  -4.798  0.376E-01  0.376E-01
  -4.698  0.260E-01  0.260E-01
  -4.598  0.177E-01  0.177E-01
  -4.498  0.126E-01  0.126E-01
  -4.398  0.969E-02  0.969E-02
  -4.298  0.784E-02  0.784E-02
  -4.198  0.651E-02  0.651E-02
  -4.098  0.545E-02  0.545E-02
  -3.998  0.455E-02  0.455E-02
  -3.898  0.375E-02  0.375E-02
  -3.798  0.317E-02  0.317E-02
  -3.698  0.283E-02  0.283E-02
  -3.598  0.265E-02  0.265E-02
  -3.498  0.255E-02  0.255E-02
  -3.398  0.255E-02  0.255E-02
  -3.298  0.261E-02  0.261E-02
  -3.198  0.264E-02  0.264E-02
  -3.098  0.258E-02  0.258E-02
  -2.998  0.245E-02  0.245E-02
  -2.898  0.227E-02  0.227E-02
  -2.798  0.203E-02  0.203E-02
  -2.698  0.177E-02  0.177E-02
  -2.598  0.153E-02  0.153E-02
  -2.498  0.140E-02  0.140E-02
  -2.398  0.145E-02  0.145E-02
  -2.298  0.172E-02  0.172E-02
  -2.198  0.220E-02  0.220E-02
  -2.098  0.275E-02  0.275E-02
  -1.998  0.325E-02  0.325E-02
  -1.898  0.362E-02  0.362E-02
  -1.798  0.384E-02  0.384E-02
  -1.698  0.392E-02  0.392E-02
  -1.598  0.387E-02  0.387E-02
  -1.498  0.363E-02  0.363E-02
  -1.398  0.318E-02  0.318E-02
  -1.298  0.251E-02  0.251E-02
  -1.198  0.174E-02  0.174E-02
  -1.098  0.101E-02  0.101E-02
  -0.998  0.490E-03  0.490E-03
  -0.898  0.192E-03  0.192E-03
  -0.798  0.601E-04  0.601E-04
  -0.698  0.150E-04  0.150E-04
  -0.598  0.295E-05  0.295E-05
  -0.498  0.459E-06  0.459E-06
  -0.398  0.562E-07  0.562E-07
  -0.298  0.540E-08  0.540E-08
  -0.198  0.543E-09  0.543E-09
  -0.098  0.242E-08  0.242E-08
   0.002  0.326E-07  0.326E-07
   0.102  0.342E-06  0.342E-06
   0.202  0.280E-05  0.280E-05
   0.302  0.178E-04  0.178E-04
   0.402  0.894E-04  0.894E-04
   0.502  0.356E-03  0.356E-03
   0.602  0.114E-02  0.114E-02
   0.702  0.296E-02  0.296E-02
   0.802  0.639E-02  0.639E-02
   0.902  0.116E-01  0.116E-01
   1.002  0.181E-01  0.181E-01
   1.102  0.245E-01  0.245E-01
   1.202  0.291E-01  0.291E-01
   1.302  0.316E-01  0.316E-01
   1.402  0.325E-01  0.325E-01
   1.502  0.332E-01  0.332E-01
   1.602  0.341E-01  0.341E-01
   1.702  0.342E-01  0.342E-01
   1.802  0.326E-01  0.326E-01
   1.902  0.289E-01  0.289E-01
   2.002  0.233E-01  0.233E-01
   2.102  0.166E-01  0.166E-01
   2.202  0.101E-01  0.101E-01
   2.302  0.509E-02  0.509E-02
   2.402  0.210E-02  0.210E-02
   2.502  0.696E-03  0.696E-03
   2.602  0.185E-03  0.185E-03
   2.702  0.390E-04  0.390E-04
   2.802  0.660E-05  0.660E-05
   2.902  0.895E-06  0.895E-06
   3.002  0.974E-07  0.974E-07
   3.102  0.854E-08  0.854E-08
   3.202  0.602E-09  0.602E-09
