# E (eV)   ldos(E)   pdos(E)    pdos(E)    pdos(E)   
 -16.398  0.742E-07  0.107E-11  0.371E-07  0.371E-07
 -16.298  0.736E-06  0.282E-10  0.368E-06  0.368E-06
 -16.198  0.571E-05  0.569E-09  0.285E-05  0.285E-05
 -16.098  0.348E-04  0.891E-08  0.174E-04  0.174E-04
 -15.998  0.168E-03  0.108E-06  0.839E-04  0.840E-04
 -15.898  0.647E-03  0.102E-05  0.323E-03  0.323E-03
 -15.798  0.201E-02  0.744E-05  0.100E-02  0.100E-02
 -15.698  0.514E-02  0.425E-04  0.255E-02  0.255E-02
 -15.598  0.110E-01  0.190E-03  0.539E-02  0.539E-02
 -15.498  0.201E-01  0.670E-03  0.969E-02  0.970E-02
 -15.398  0.323E-01  0.187E-02  0.152E-01  0.152E-01
 -15.298  0.470E-01  0.414E-02  0.214E-01  0.214E-01
 -15.198  0.628E-01  0.734E-02  0.278E-01  0.277E-01
 -15.098  0.782E-01  0.105E-01  0.339E-01  0.338E-01
 -14.998  0.916E-01  0.124E-01  0.396E-01  0.395E-01
 -14.898  0.102E+00  0.125E-01  0.450E-01  0.449E-01
 -14.798  0.112E+00  0.122E-01  0.501E-01  0.500E-01
 -14.698  0.125E+00  0.152E-01  0.550E-01  0.548E-01
 -14.598  0.146E+00  0.264E-01  0.597E-01  0.595E-01
 -14.498  0.178E+00  0.500E-01  0.644E-01  0.641E-01
 -14.398  0.223E+00  0.850E-01  0.692E-01  0.688E-01
 -14.298  0.271E+00  0.123E+00  0.742E-01  0.737E-01
 -14.198  0.311E+00  0.152E+00  0.798E-01  0.793E-01
 -14.098  0.340E+00  0.167E+00  0.864E-01  0.858E-01
 -13.998  0.364E+00  0.175E+00  0.949E-01  0.941E-01
 -13.898  0.393E+00  0.182E+00  0.106E+00  0.105E+00
 -13.798  0.428E+00  0.188E+00  0.120E+00  0.119E+00
 -13.698  0.460E+00  0.190E+00  0.136E+00  0.135E+00
 -13.598  0.477E+00  0.186E+00  0.146E+00  0.146E+00
 -13.498  0.465E+00  0.176E+00  0.144E+00  0.145E+00
 -13.398  0.415E+00  0.161E+00  0.126E+00  0.128E+00
 -13.298  0.333E+00  0.138E+00  0.965E-01  0.980E-01
 -13.198  0.234E+00  0.108E+00  0.627E-01  0.638E-01
 -13.098  0.142E+00  0.730E-01  0.342E-01  0.348E-01
 -12.998  0.727E-01  0.418E-01  0.153E-01  0.156E-01
 -12.898  0.311E-01  0.199E-01  0.555E-02  0.564E-02
 -12.798  0.110E-01  0.780E-02  0.161E-02  0.163E-02
 -12.698  0.324E-02  0.250E-02  0.368E-03  0.374E-03
 -12.598  0.785E-03  0.652E-03  0.662E-04  0.671E-04
 -12.498  0.157E-03  0.138E-03  0.927E-05  0.939E-05
 -12.398  0.258E-04  0.238E-04  0.101E-05  0.102E-05
 -12.298  0.346E-05  0.329E-05  0.848E-07  0.858E-07
 -12.198  0.374E-06  0.363E-06  0.550E-08  0.557E-08
 -12.098  0.325E-07  0.319E-07  0.275E-09  0.278E-09
 -11.998  0.223E-08  0.221E-08  0.106E-10  0.107E-10
 -11.898  0.121E-09  0.120E-09  0.308E-12  0.312E-12
 -11.798  0.508E-11  0.507E-11  0.476E-14  0.481E-14
 -11.698  0.163E-12  0.163E-12  0.359E-19  0.250E-19
 -11.598  0.389E-14  0.389E-14  0.969E-21  0.678E-21
 -11.498  0.000E+00  0.000E+00  0.000E+00  0.000E+00
 -11.398  0.000E+00  0.000E+00  0.000E+00  0.000E+00
 -11.298  0.000E+00  0.000E+00  0.000E+00  0.000E+00
 -11.198  0.000E+00  0.000E+00  0.000E+00  0.000E+00
 -11.098  0.000E+00  0.000E+00  0.000E+00  0.000E+00
 -10.998  0.000E+00  0.000E+00  0.000E+00  0.000E+00
 -10.898  0.000E+00  0.000E+00  0.000E+00  0.000E+00
 -10.798  0.000E+00  0.000E+00  0.000E+00  0.000E+00
 -10.698  0.000E+00  0.000E+00  0.000E+00  0.000E+00
 -10.598  0.000E+00  0.000E+00  0.000E+00  0.000E+00
 -10.498  0.000E+00  0.000E+00  0.000E+00  0.000E+00
 -10.398  0.000E+00  0.000E+00  0.000E+00  0.000E+00
 -10.298  0.000E+00  0.000E+00  0.000E+00  0.000E+00
 -10.198  0.000E+00  0.000E+00  0.000E+00  0.000E+00
 -10.098  0.000E+00  0.000E+00  0.000E+00  0.000E+00
  -9.998  0.000E+00  0.000E+00  0.000E+00  0.000E+00
  -9.898  0.000E+00  0.000E+00  0.000E+00  0.000E+00
  -9.798  0.000E+00  0.000E+00  0.000E+00  0.000E+00
  -9.698  0.000E+00  0.000E+00  0.000E+00  0.000E+00
  -9.598  0.000E+00  0.000E+00  0.000E+00  0.000E+00
  -9.498  0.000E+00  0.000E+00  0.000E+00  0.000E+00
  -9.398  0.000E+00  0.000E+00  0.000E+00  0.000E+00
  -9.298  0.000E+00  0.000E+00  0.000E+00  0.000E+00
  -9.198  0.000E+00  0.000E+00  0.000E+00  0.000E+00
  -9.098  0.000E+00  0.000E+00  0.000E+00  0.000E+00
  -8.998  0.000E+00  0.000E+00  0.000E+00  0.000E+00
  -8.898  0.000E+00  0.000E+00  0.000E+00  0.000E+00
  -8.798  0.000E+00  0.000E+00  0.000E+00  0.000E+00
  -8.698  0.780E-14  0.184E-14  0.298E-14  0.299E-14
  -8.598  0.370E-12  0.858E-13  0.142E-12  0.142E-12
  -8.498  0.122E-10  0.281E-11  0.468E-11  0.470E-11
  -8.398  0.306E-09  0.702E-10  0.118E-09  0.118E-09
  -8.298  0.592E-08  0.135E-08  0.228E-08  0.229E-08
  -8.198  0.880E-07  0.198E-07  0.341E-07  0.342E-07
  -8.098  0.101E-05  0.224E-06  0.391E-06  0.392E-06
  -7.998  0.890E-05  0.195E-05  0.347E-05  0.348E-05
  -7.898  0.608E-04  0.131E-04  0.238E-04  0.239E-04
  -7.798  0.322E-03  0.675E-04  0.127E-03  0.127E-03
  -7.698  0.133E-02  0.269E-03  0.529E-03  0.530E-03
  -7.598  0.429E-02  0.830E-03  0.173E-02  0.173E-02
  -7.498  0.110E-01  0.199E-02  0.448E-02  0.449E-02
  -7.398  0.224E-01  0.371E-02  0.933E-02  0.935E-02
  -7.298  0.373E-01  0.549E-02  0.159E-01  0.159E-01
  -7.198  0.523E-01  0.664E-02  0.229E-01  0.228E-01
  -7.098  0.645E-01  0.726E-02  0.286E-01  0.286E-01
  -6.998  0.740E-01  0.859E-02  0.327E-01  0.326E-01
  -6.898  0.832E-01  0.122E-01  0.355E-01  0.354E-01
  -6.798  0.933E-01  0.187E-01  0.373E-01  0.373E-01
  -6.698  0.102E+00  0.271E-01  0.377E-01  0.377E-01
  -6.598  0.107E+00  0.360E-01  0.354E-01  0.355E-01
  -6.498  0.104E+00  0.440E-01  0.301E-01  0.302E-01
  -6.398  0.953E-01  0.495E-01  0.228E-01  0.229E-01
  -6.298  0.818E-01  0.511E-01  0.153E-01  0.154E-01
  -6.198  0.666E-01  0.482E-01  0.917E-02  0.923E-02
  -6.098  0.519E-01  0.419E-01  0.497E-02  0.501E-02
  -5.998  0.393E-01  0.341E-01  0.259E-02  0.260E-02
  -5.898  0.302E-01  0.269E-01  0.166E-02  0.167E-02
  -5.798  0.259E-01  0.218E-01  0.203E-02  0.205E-02
  -5.698  0.278E-01  0.199E-01  0.390E-02  0.393E-02
  -5.598  0.367E-01  0.209E-01  0.785E-02  0.792E-02
  -5.498  0.535E-01  0.241E-01  0.147E-01  0.148E-01
  -5.398  0.776E-01  0.284E-01  0.245E-01  0.246E-01
  -5.298  0.105E+00  0.330E-01  0.359E-01  0.360E-01
  -5.198  0.127E+00  0.365E-01  0.453E-01  0.452E-01
  -5.098  0.135E+00  0.376E-01  0.487E-01  0.486E-01
  -4.998  0.126E+00  0.368E-01  0.448E-01  0.447E-01
  -4.898  0.108E+00  0.366E-01  0.359E-01  0.359E-01
  -4.798  0.929E-01  0.402E-01  0.264E-01  0.264E-01
  -4.698  0.872E-01  0.485E-01  0.193E-01  0.194E-01
  -4.598  0.899E-01  0.588E-01  0.155E-01  0.156E-01
  -4.498  0.935E-01  0.652E-01  0.141E-01  0.141E-01
  -4.398  0.901E-01  0.626E-01  0.138E-01  0.137E-01
  -4.298  0.781E-01  0.507E-01  0.137E-01  0.137E-01
  -4.198  0.626E-01  0.347E-01  0.140E-01  0.139E-01
  -4.098  0.499E-01  0.210E-01  0.145E-01  0.144E-01
  -3.998  0.431E-01  0.132E-01  0.150E-01  0.148E-01
  -3.898  0.414E-01  0.108E-01  0.154E-01  0.152E-01
  -3.798  0.434E-01  0.114E-01  0.161E-01  0.159E-01
  -3.698  0.472E-01  0.130E-01  0.172E-01  0.170E-01
  -3.598  0.509E-01  0.144E-01  0.184E-01  0.182E-01
  -3.498  0.545E-01  0.156E-01  0.195E-01  0.194E-01
  -3.398  0.593E-01  0.169E-01  0.212E-01  0.212E-01
  -3.298  0.655E-01  0.190E-01  0.232E-01  0.233E-01
  -3.198  0.715E-01  0.217E-01  0.248E-01  0.249E-01
  -3.098  0.749E-01  0.242E-01  0.253E-01  0.255E-01
  -2.998  0.750E-01  0.254E-01  0.247E-01  0.249E-01
  -2.898  0.717E-01  0.247E-01  0.234E-01  0.236E-01
  -2.798  0.663E-01  0.229E-01  0.216E-01  0.218E-01
  -2.698  0.611E-01  0.211E-01  0.199E-01  0.201E-01
  -2.598  0.576E-01  0.200E-01  0.187E-01  0.188E-01
  -2.498  0.560E-01  0.196E-01  0.181E-01  0.182E-01
  -2.398  0.563E-01  0.196E-01  0.184E-01  0.184E-01
  -2.298  0.587E-01  0.194E-01  0.196E-01  0.196E-01
  -2.198  0.623E-01  0.187E-01  0.218E-01  0.218E-01
  -2.098  0.657E-01  0.169E-01  0.244E-01  0.244E-01
  -1.998  0.671E-01  0.142E-01  0.265E-01  0.264E-01
  -1.898  0.656E-01  0.113E-01  0.272E-01  0.271E-01
  -1.798  0.612E-01  0.905E-02  0.261E-01  0.261E-01
  -1.698  0.544E-01  0.800E-02  0.232E-01  0.232E-01
  -1.598  0.458E-01  0.792E-02  0.190E-01  0.189E-01
  -1.498  0.362E-01  0.806E-02  0.141E-01  0.141E-01
  -1.398  0.267E-01  0.767E-02  0.951E-02  0.947E-02
  -1.298  0.181E-01  0.648E-02  0.581E-02  0.578E-02
  -1.198  0.112E-01  0.474E-02  0.323E-02  0.322E-02
  -1.098  0.623E-02  0.296E-02  0.164E-02  0.163E-02
  -0.998  0.304E-02  0.155E-02  0.746E-03  0.745E-03
  -0.898  0.127E-02  0.673E-03  0.299E-03  0.299E-03
  -0.798  0.441E-03  0.237E-03  0.102E-03  0.102E-03
  -0.698  0.124E-03  0.670E-04  0.287E-04  0.288E-04
  -0.598  0.282E-04  0.150E-04  0.653E-05  0.658E-05
  -0.498  0.504E-05  0.266E-05  0.118E-05  0.119E-05
  -0.398  0.709E-06  0.369E-06  0.169E-06  0.171E-06
  -0.298  0.777E-07  0.398E-07  0.188E-07  0.190E-07
  -0.198  0.671E-08  0.333E-08  0.168E-08  0.170E-08
  -0.098  0.231E-08  0.326E-09  0.992E-09  0.995E-09
   0.002  0.274E-07  0.157E-08  0.129E-07  0.129E-07
   0.102  0.307E-06  0.171E-07  0.145E-06  0.145E-06
   0.202  0.267E-05  0.147E-06  0.126E-05  0.127E-05
   0.302  0.181E-04  0.996E-06  0.851E-05  0.854E-05
   0.402  0.951E-04  0.544E-05  0.447E-04  0.449E-04
   0.502  0.393E-03  0.242E-04  0.184E-03  0.185E-03
   0.602  0.129E-02  0.895E-04  0.597E-03  0.600E-03
   0.702  0.338E-02  0.278E-03  0.155E-02  0.155E-02
   0.802  0.723E-02  0.725E-03  0.324E-02  0.326E-02
   0.902  0.129E-01  0.159E-02  0.562E-02  0.565E-02
   1.002  0.195E-01  0.293E-02  0.826E-02  0.831E-02
   1.102  0.258E-01  0.455E-02  0.106E-01  0.107E-01
   1.202  0.305E-01  0.604E-02  0.122E-01  0.123E-01
   1.302  0.329E-01  0.711E-02  0.129E-01  0.129E-01
   1.402  0.330E-01  0.776E-02  0.126E-01  0.126E-01
   1.502  0.315E-01  0.816E-02  0.117E-01  0.117E-01
   1.602  0.294E-01  0.840E-02  0.105E-01  0.105E-01
   1.702  0.276E-01  0.839E-02  0.957E-02  0.963E-02
   1.802  0.266E-01  0.806E-02  0.917E-02  0.933E-02
   1.902  0.256E-01  0.736E-02  0.896E-02  0.926E-02
   2.002  0.232E-01  0.623E-02  0.830E-02  0.870E-02
   2.102  0.187E-01  0.470E-02  0.676E-02  0.720E-02
   2.202  0.127E-01  0.304E-02  0.461E-02  0.500E-02
   2.302  0.704E-02  0.162E-02  0.257E-02  0.284E-02
   2.402  0.316E-02  0.700E-03  0.115E-02  0.131E-02
   2.502  0.114E-02  0.241E-03  0.415E-03  0.484E-03
   2.602  0.329E-03  0.651E-04  0.120E-03  0.144E-03
   2.702  0.761E-04  0.138E-04  0.276E-04  0.347E-04
   2.802  0.142E-04  0.228E-05  0.512E-05  0.675E-05
   2.902  0.213E-05  0.294E-06  0.767E-06  0.107E-05
   3.002  0.258E-06  0.294E-07  0.927E-07  0.136E-06
   3.102  0.254E-07  0.228E-08  0.903E-08  0.141E-07
   3.202  0.201E-08  0.136E-09  0.705E-09  0.117E-08
