# E (eV)   ldos(E)   pdos(E)    pdos(E)    pdos(E)   
 -16.398  0.497E-07  0.444E-07  0.264E-08  0.264E-08
 -16.298  0.447E-06  0.395E-06  0.261E-07  0.261E-07
 -16.198  0.313E-05  0.272E-05  0.202E-06  0.202E-06
 -16.098  0.170E-04  0.146E-04  0.123E-05  0.123E-05
 -15.998  0.726E-04  0.608E-04  0.591E-05  0.591E-05
 -15.898  0.245E-03  0.199E-03  0.227E-04  0.227E-04
 -15.798  0.657E-03  0.516E-03  0.702E-04  0.702E-04
 -15.698  0.143E-02  0.107E-02  0.178E-03  0.178E-03
 -15.598  0.256E-02  0.181E-02  0.375E-03  0.374E-03
 -15.498  0.388E-02  0.254E-02  0.672E-03  0.671E-03
 -15.398  0.514E-02  0.304E-02  0.105E-02  0.105E-02
 -15.298  0.614E-02  0.319E-02  0.148E-02  0.147E-02
 -15.198  0.687E-02  0.306E-02  0.191E-02  0.190E-02
 -15.098  0.743E-02  0.280E-02  0.232E-02  0.232E-02
 -14.998  0.799E-02  0.259E-02  0.270E-02  0.270E-02
 -14.898  0.863E-02  0.253E-02  0.305E-02  0.305E-02
 -14.798  0.937E-02  0.264E-02  0.337E-02  0.337E-02
 -14.698  0.102E-01  0.289E-02  0.367E-02  0.366E-02
 -14.598  0.112E-01  0.329E-02  0.396E-02  0.396E-02
 -14.498  0.124E-01  0.386E-02  0.430E-02  0.429E-02
 -14.398  0.140E-01  0.458E-02  0.471E-02  0.471E-02
 -14.298  0.158E-01  0.534E-02  0.523E-02  0.523E-02
 -14.198  0.177E-01  0.598E-02  0.585E-02  0.584E-02
 -14.098  0.194E-01  0.642E-02  0.651E-02  0.650E-02
 -13.998  0.209E-01  0.670E-02  0.713E-02  0.712E-02
 -13.898  0.223E-01  0.705E-02  0.764E-02  0.763E-02
 -13.798  0.237E-01  0.773E-02  0.798E-02  0.797E-02
 -13.698  0.249E-01  0.875E-02  0.808E-02  0.806E-02
 -13.598  0.255E-01  0.975E-02  0.787E-02  0.785E-02
 -13.498  0.248E-01  0.101E-01  0.732E-02  0.730E-02
 -13.398  0.224E-01  0.958E-02  0.644E-02  0.642E-02
 -13.298  0.188E-01  0.815E-02  0.532E-02  0.529E-02
 -13.198  0.143E-01  0.625E-02  0.404E-02  0.401E-02
 -13.098  0.982E-02  0.432E-02  0.276E-02  0.273E-02
 -12.998  0.595E-02  0.266E-02  0.166E-02  0.163E-02
 -12.898  0.311E-02  0.142E-02  0.850E-03  0.836E-03
 -12.798  0.137E-02  0.645E-03  0.366E-03  0.359E-03
 -12.698  0.501E-03  0.243E-03  0.130E-03  0.127E-03
 -12.598  0.150E-03  0.752E-04  0.376E-04  0.367E-04
 -12.498  0.360E-04  0.188E-04  0.875E-05  0.854E-05
 -12.398  0.694E-05  0.373E-05  0.163E-05  0.158E-05
 -12.298  0.106E-05  0.588E-06  0.239E-06  0.233E-06
 -12.198  0.128E-06  0.729E-07  0.277E-07  0.270E-07
 -12.098  0.120E-07  0.706E-08  0.251E-08  0.245E-08
 -11.998  0.883E-09  0.531E-09  0.178E-09  0.173E-09
 -11.898  0.504E-10  0.310E-10  0.978E-11  0.954E-11
 -11.798  0.223E-11  0.140E-11  0.417E-12  0.407E-12
 -11.698  0.756E-13  0.487E-13  0.136E-13  0.133E-13
 -11.598  0.186E-14  0.124E-14  0.313E-15  0.306E-15
 -11.498  0.000E+00  0.000E+00  0.000E+00  0.000E+00
 -11.398  0.000E+00  0.000E+00  0.000E+00  0.000E+00
 -11.298  0.000E+00  0.000E+00  0.000E+00  0.000E+00
 -11.198  0.000E+00  0.000E+00  0.000E+00  0.000E+00
 -11.098  0.000E+00  0.000E+00  0.000E+00  0.000E+00
 -10.998  0.000E+00  0.000E+00  0.000E+00  0.000E+00
 -10.898  0.000E+00  0.000E+00  0.000E+00  0.000E+00
 -10.798  0.000E+00  0.000E+00  0.000E+00  0.000E+00
 -10.698  0.000E+00  0.000E+00  0.000E+00  0.000E+00
 -10.598  0.000E+00  0.000E+00  0.000E+00  0.000E+00
 -10.498  0.000E+00  0.000E+00  0.000E+00  0.000E+00
 -10.398  0.000E+00  0.000E+00  0.000E+00  0.000E+00
 -10.298  0.000E+00  0.000E+00  0.000E+00  0.000E+00
 -10.198  0.000E+00  0.000E+00  0.000E+00  0.000E+00
 -10.098  0.000E+00  0.000E+00  0.000E+00  0.000E+00
  -9.998  0.000E+00  0.000E+00  0.000E+00  0.000E+00
  -9.898  0.000E+00  0.000E+00  0.000E+00  0.000E+00
  -9.798  0.000E+00  0.000E+00  0.000E+00  0.000E+00
  -9.698  0.000E+00  0.000E+00  0.000E+00  0.000E+00
  -9.598  0.000E+00  0.000E+00  0.000E+00  0.000E+00
  -9.498  0.000E+00  0.000E+00  0.000E+00  0.000E+00
  -9.398  0.000E+00  0.000E+00  0.000E+00  0.000E+00
  -9.298  0.000E+00  0.000E+00  0.000E+00  0.000E+00
  -9.198  0.000E+00  0.000E+00  0.000E+00  0.000E+00
  -9.098  0.000E+00  0.000E+00  0.000E+00  0.000E+00
  -8.998  0.000E+00  0.000E+00  0.000E+00  0.000E+00
  -8.898  0.000E+00  0.000E+00  0.000E+00  0.000E+00
  -8.798  0.000E+00  0.000E+00  0.000E+00  0.000E+00
  -8.698  0.256E-13  0.130E-15  0.127E-13  0.127E-13
  -8.598  0.122E-11  0.624E-14  0.608E-12  0.609E-12
  -8.498  0.404E-10  0.205E-12  0.201E-10  0.201E-10
  -8.398  0.102E-08  0.514E-11  0.507E-09  0.507E-09
  -8.298  0.198E-07  0.994E-10  0.983E-08  0.984E-08
  -8.198  0.295E-06  0.148E-08  0.147E-06  0.147E-06
  -8.098  0.339E-05  0.170E-07  0.169E-05  0.169E-05
  -7.998  0.302E-04  0.151E-06  0.150E-04  0.150E-04
  -7.898  0.208E-03  0.105E-05  0.103E-03  0.103E-03
  -7.798  0.111E-02  0.579E-05  0.553E-03  0.553E-03
  -7.698  0.465E-02  0.263E-04  0.231E-02  0.231E-02
  -7.598  0.153E-01  0.105E-03  0.761E-02  0.760E-02
  -7.498  0.401E-01  0.389E-03  0.199E-01  0.199E-01
  -7.398  0.852E-01  0.139E-02  0.419E-01  0.419E-01
  -7.298  0.150E+00  0.460E-02  0.730E-01  0.729E-01
  -7.198  0.230E+00  0.134E-01  0.108E+00  0.108E+00
  -7.098  0.320E+00  0.331E-01  0.144E+00  0.144E+00
  -6.998  0.428E+00  0.688E-01  0.180E+00  0.179E+00
  -6.898  0.561E+00  0.122E+00  0.220E+00  0.219E+00
  -6.798  0.714E+00  0.186E+00  0.264E+00  0.264E+00
  -6.698  0.864E+00  0.250E+00  0.308E+00  0.307E+00
  -6.598  0.971E+00  0.296E+00  0.338E+00  0.337E+00
  -6.498  0.100E+01  0.310E+00  0.346E+00  0.346E+00
  -6.398  0.943E+00  0.285E+00  0.329E+00  0.329E+00
  -6.298  0.812E+00  0.230E+00  0.291E+00  0.291E+00
  -6.198  0.652E+00  0.169E+00  0.242E+00  0.242E+00
  -6.098  0.507E+00  0.120E+00  0.193E+00  0.194E+00
  -5.998  0.400E+00  0.917E-01  0.154E+00  0.154E+00
  -5.898  0.333E+00  0.792E-01  0.127E+00  0.127E+00
  -5.798  0.297E+00  0.769E-01  0.110E+00  0.110E+00
  -5.698  0.293E+00  0.860E-01  0.103E+00  0.104E+00
  -5.598  0.325E+00  0.114E+00  0.105E+00  0.106E+00
  -5.498  0.401E+00  0.167E+00  0.117E+00  0.117E+00
  -5.398  0.511E+00  0.237E+00  0.137E+00  0.137E+00
  -5.298  0.625E+00  0.303E+00  0.160E+00  0.161E+00
  -5.198  0.704E+00  0.342E+00  0.181E+00  0.181E+00
  -5.098  0.723E+00  0.344E+00  0.189E+00  0.190E+00
  -4.998  0.688E+00  0.314E+00  0.187E+00  0.188E+00
  -4.898  0.641E+00  0.273E+00  0.183E+00  0.185E+00
  -4.798  0.642E+00  0.246E+00  0.197E+00  0.199E+00
  -4.698  0.727E+00  0.245E+00  0.239E+00  0.243E+00
  -4.598  0.874E+00  0.265E+00  0.302E+00  0.306E+00
  -4.498  0.100E+01  0.284E+00  0.357E+00  0.359E+00
  -4.398  0.103E+01  0.281E+00  0.372E+00  0.372E+00
  -4.298  0.932E+00  0.253E+00  0.340E+00  0.339E+00
  -4.198  0.773E+00  0.213E+00  0.281E+00  0.279E+00
  -4.098  0.617E+00  0.174E+00  0.223E+00  0.221E+00
  -3.998  0.505E+00  0.144E+00  0.181E+00  0.180E+00
  -3.898  0.441E+00  0.125E+00  0.158E+00  0.158E+00
  -3.798  0.418E+00  0.119E+00  0.149E+00  0.150E+00
  -3.698  0.425E+00  0.124E+00  0.150E+00  0.151E+00
  -3.598  0.449E+00  0.136E+00  0.156E+00  0.156E+00
  -3.498  0.487E+00  0.155E+00  0.166E+00  0.166E+00
  -3.398  0.553E+00  0.185E+00  0.184E+00  0.184E+00
  -3.298  0.655E+00  0.234E+00  0.211E+00  0.210E+00
  -3.198  0.778E+00  0.300E+00  0.240E+00  0.239E+00
  -3.098  0.887E+00  0.364E+00  0.262E+00  0.261E+00
  -2.998  0.942E+00  0.404E+00  0.270E+00  0.269E+00
  -2.898  0.931E+00  0.408E+00  0.262E+00  0.261E+00
  -2.798  0.874E+00  0.384E+00  0.245E+00  0.244E+00
  -2.698  0.807E+00  0.354E+00  0.227E+00  0.226E+00
  -2.598  0.759E+00  0.333E+00  0.213E+00  0.213E+00
  -2.498  0.736E+00  0.323E+00  0.207E+00  0.206E+00
  -2.398  0.729E+00  0.318E+00  0.206E+00  0.205E+00
  -2.298  0.720E+00  0.309E+00  0.206E+00  0.205E+00
  -2.198  0.692E+00  0.288E+00  0.202E+00  0.201E+00
  -2.098  0.636E+00  0.254E+00  0.192E+00  0.190E+00
  -1.998  0.566E+00  0.215E+00  0.176E+00  0.175E+00
  -1.898  0.497E+00  0.179E+00  0.159E+00  0.158E+00
  -1.798  0.439E+00  0.154E+00  0.143E+00  0.142E+00
  -1.698  0.392E+00  0.141E+00  0.126E+00  0.125E+00
  -1.598  0.351E+00  0.137E+00  0.107E+00  0.106E+00
  -1.498  0.308E+00  0.135E+00  0.869E-01  0.862E-01
  -1.398  0.258E+00  0.126E+00  0.666E-01  0.660E-01
  -1.298  0.199E+00  0.105E+00  0.476E-01  0.472E-01
  -1.198  0.136E+00  0.739E-01  0.313E-01  0.311E-01
  -1.098  0.802E-01  0.432E-01  0.186E-01  0.184E-01
  -0.998  0.397E-01  0.205E-01  0.963E-02  0.955E-02
  -0.898  0.163E-01  0.782E-02  0.423E-02  0.420E-02
  -0.798  0.544E-02  0.238E-02  0.154E-02  0.153E-02
  -0.698  0.148E-02  0.576E-03  0.452E-03  0.449E-03
  -0.598  0.322E-03  0.111E-03  0.106E-03  0.105E-03
  -0.498  0.559E-04  0.168E-04  0.196E-04  0.194E-04
  -0.398  0.768E-05  0.203E-05  0.283E-05  0.281E-05
  -0.298  0.830E-06  0.194E-06  0.319E-06  0.317E-06
  -0.198  0.718E-07  0.150E-07  0.285E-07  0.283E-07
  -0.098  0.353E-07  0.712E-08  0.141E-07  0.141E-07
   0.002  0.441E-06  0.902E-07  0.175E-06  0.176E-06
   0.102  0.490E-05  0.101E-05  0.194E-05  0.195E-05
   0.202  0.422E-04  0.871E-05  0.167E-04  0.168E-04
   0.302  0.283E-03  0.588E-04  0.112E-03  0.112E-03
   0.402  0.148E-02  0.311E-03  0.584E-03  0.587E-03
   0.502  0.611E-02  0.130E-02  0.240E-02  0.241E-02
   0.602  0.200E-01  0.432E-02  0.782E-02  0.787E-02
   0.702  0.527E-01  0.117E-01  0.204E-01  0.206E-01
   0.802  0.113E+00  0.260E-01  0.434E-01  0.437E-01
   0.902  0.202E+00  0.488E-01  0.765E-01  0.769E-01
   1.002  0.307E+00  0.784E-01  0.114E+00  0.115E+00
   1.102  0.405E+00  0.109E+00  0.148E+00  0.148E+00
   1.202  0.479E+00  0.134E+00  0.173E+00  0.173E+00
   1.302  0.529E+00  0.146E+00  0.191E+00  0.191E+00
   1.402  0.570E+00  0.149E+00  0.210E+00  0.211E+00
   1.502  0.618E+00  0.149E+00  0.234E+00  0.235E+00
   1.602  0.670E+00  0.151E+00  0.260E+00  0.260E+00
   1.702  0.704E+00  0.156E+00  0.274E+00  0.274E+00
   1.802  0.696E+00  0.158E+00  0.269E+00  0.269E+00
   1.902  0.640E+00  0.153E+00  0.244E+00  0.244E+00
   2.002  0.544E+00  0.136E+00  0.204E+00  0.204E+00
   2.102  0.419E+00  0.108E+00  0.155E+00  0.156E+00
   2.202  0.285E+00  0.751E-01  0.104E+00  0.106E+00
   2.302  0.166E+00  0.439E-01  0.602E-01  0.619E-01
   2.402  0.807E-01  0.211E-01  0.291E-01  0.305E-01
   2.502  0.322E-01  0.826E-02  0.116E-01  0.124E-01
   2.602  0.105E-01  0.260E-02  0.372E-02  0.414E-02
   2.702  0.274E-02  0.655E-03  0.965E-03  0.112E-02
   2.802  0.578E-03  0.132E-03  0.200E-03  0.246E-03
   2.902  0.977E-04  0.212E-04  0.332E-04  0.433E-04
   3.002  0.132E-04  0.271E-05  0.438E-05  0.609E-05
   3.102  0.141E-05  0.275E-06  0.458E-06  0.681E-06
   3.202  0.120E-06  0.220E-07  0.377E-07  0.601E-07
