# E (eV)   ldos(E)   pdos(E)   
 -16.398  0.217E-05  0.217E-05
 -16.298  0.192E-04  0.192E-04
 -16.198  0.132E-03  0.132E-03
 -16.098  0.705E-03  0.705E-03
 -15.998  0.293E-02  0.293E-02
 -15.898  0.955E-02  0.955E-02
 -15.798  0.246E-01  0.246E-01
 -15.698  0.506E-01  0.506E-01
 -15.598  0.846E-01  0.846E-01
 -15.498  0.118E+00  0.118E+00
 -15.398  0.141E+00  0.141E+00
 -15.298  0.150E+00  0.150E+00
 -15.198  0.147E+00  0.147E+00
 -15.098  0.140E+00  0.140E+00
 -14.998  0.130E+00  0.130E+00
 -14.898  0.121E+00  0.121E+00
 -14.798  0.112E+00  0.112E+00
 -14.698  0.103E+00  0.103E+00
 -14.598  0.955E-01  0.955E-01
 -14.498  0.883E-01  0.883E-01
 -14.398  0.816E-01  0.816E-01
 -14.298  0.753E-01  0.753E-01
 -14.198  0.695E-01  0.695E-01
 -14.098  0.640E-01  0.640E-01
 -13.998  0.590E-01  0.590E-01
 -13.898  0.543E-01  0.543E-01
 -13.798  0.499E-01  0.499E-01
 -13.698  0.451E-01  0.451E-01
 -13.598  0.390E-01  0.390E-01
 -13.498  0.313E-01  0.313E-01
 -13.398  0.224E-01  0.224E-01
 -13.298  0.139E-01  0.139E-01
 -13.198  0.732E-02  0.732E-02
 -13.098  0.323E-02  0.323E-02
 -12.998  0.118E-02  0.118E-02
 -12.898  0.352E-03  0.352E-03
 -12.798  0.854E-04  0.854E-04
 -12.698  0.166E-04  0.166E-04
 -12.598  0.258E-05  0.258E-05
 -12.498  0.317E-06  0.317E-06
 -12.398  0.307E-07  0.307E-07
 -12.298  0.232E-08  0.232E-08
 -12.198  0.136E-09  0.136E-09
 -12.098  0.623E-11  0.623E-11
 -11.998  0.219E-12  0.219E-12
 -11.898  0.562E-14  0.562E-14
 -11.798  0.370E-16  0.370E-16
 -11.698  0.132E-20  0.132E-20
 -11.598  0.311E-22  0.311E-22
 -11.498  0.000E+00  0.000E+00
 -11.398  0.000E+00  0.000E+00
 -11.298  0.000E+00  0.000E+00
 -11.198  0.000E+00  0.000E+00
 -11.098  0.000E+00  0.000E+00
 -10.998  0.000E+00  0.000E+00
 -10.898  0.000E+00  0.000E+00
 -10.798  0.000E+00  0.000E+00
 -10.698  0.000E+00  0.000E+00
 -10.598  0.000E+00  0.000E+00
 -10.498  0.000E+00  0.000E+00
 -10.398  0.000E+00  0.000E+00
 -10.298  0.000E+00  0.000E+00
 -10.198  0.000E+00  0.000E+00
 -10.098  0.000E+00  0.000E+00
  -9.998  0.000E+00  0.000E+00
  -9.898  0.000E+00  0.000E+00
  -9.798  0.000E+00  0.000E+00
  -9.698  0.000E+00  0.000E+00
  -9.598  0.000E+00  0.000E+00
  -9.498  0.000E+00  0.000E+00
  -9.398  0.000E+00  0.000E+00
  -9.298  0.000E+00  0.000E+00
  -9.198  0.000E+00  0.000E+00
  -9.098  0.000E+00  0.000E+00
  -8.998  0.000E+00  0.000E+00
  -8.898  0.000E+00  0.000E+00
  -8.798  0.000E+00  0.000E+00
  -8.698  0.311E-14  0.311E-14
  -8.598  0.149E-12  0.149E-12
  -8.498  0.491E-11  0.491E-11
  -8.398  0.124E-09  0.124E-09
  -8.298  0.240E-08  0.240E-08
  -8.198  0.358E-07  0.358E-07
  -8.098  0.412E-06  0.412E-06
  -7.998  0.366E-05  0.366E-05
  -7.898  0.252E-04  0.252E-04
  -7.798  0.135E-03  0.135E-03
  -7.698  0.564E-03  0.564E-03
  -7.598  0.186E-02  0.186E-02
  -7.498  0.487E-02  0.487E-02
  -7.398  0.103E-01  0.103E-01
  -7.298  0.180E-01  0.180E-01
  -7.198  0.268E-01  0.268E-01
  -7.098  0.350E-01  0.350E-01
  -6.998  0.418E-01  0.418E-01
  -6.898  0.467E-01  0.467E-01
  -6.798  0.496E-01  0.496E-01
  -6.698  0.495E-01  0.495E-01
  -6.598  0.454E-01  0.454E-01
  -6.498  0.376E-01  0.376E-01
  -6.398  0.277E-01  0.277E-01
  -6.298  0.183E-01  0.183E-01
  -6.198  0.111E-01  0.111E-01
  -6.098  0.634E-02  0.634E-02
  -5.998  0.350E-02  0.350E-02
  -5.898  0.189E-02  0.189E-02
  -5.798  0.118E-02  0.118E-02
  -5.698  0.149E-02  0.149E-02
  -5.598  0.345E-02  0.345E-02
  -5.498  0.827E-02  0.827E-02
  -5.398  0.173E-01  0.173E-01
  -5.298  0.305E-01  0.305E-01
  -5.198  0.449E-01  0.449E-01
  -5.098  0.552E-01  0.552E-01
  -4.998  0.567E-01  0.567E-01
  -4.898  0.494E-01  0.494E-01
  -4.798  0.375E-01  0.375E-01
  -4.698  0.260E-01  0.260E-01
  -4.598  0.177E-01  0.177E-01
  -4.498  0.126E-01  0.126E-01
  -4.398  0.973E-02  0.973E-02
  -4.298  0.788E-02  0.788E-02
  -4.198  0.654E-02  0.654E-02
  -4.098  0.547E-02  0.547E-02
  -3.998  0.456E-02  0.456E-02
  -3.898  0.377E-02  0.377E-02
  -3.798  0.318E-02  0.318E-02
  -3.698  0.284E-02  0.284E-02
  -3.598  0.266E-02  0.266E-02
  -3.498  0.256E-02  0.256E-02
  -3.398  0.256E-02  0.256E-02
  -3.298  0.262E-02  0.262E-02
  -3.198  0.265E-02  0.265E-02
  -3.098  0.259E-02  0.259E-02
  -2.998  0.246E-02  0.246E-02
  -2.898  0.227E-02  0.227E-02
  -2.798  0.203E-02  0.203E-02
  -2.698  0.177E-02  0.177E-02
  -2.598  0.153E-02  0.153E-02
  -2.498  0.140E-02  0.140E-02
  -2.398  0.145E-02  0.145E-02
  -2.298  0.172E-02  0.172E-02
  -2.198  0.220E-02  0.220E-02
  -2.098  0.276E-02  0.276E-02
  -1.998  0.326E-02  0.326E-02
  -1.898  0.362E-02  0.362E-02
  -1.798  0.385E-02  0.385E-02
  -1.698  0.393E-02  0.393E-02
  -1.598  0.387E-02  0.387E-02
  -1.498  0.363E-02  0.363E-02
  -1.398  0.317E-02  0.317E-02
  -1.298  0.250E-02  0.250E-02
  -1.198  0.173E-02  0.173E-02
  -1.098  0.101E-02  0.101E-02
  -0.998  0.486E-03  0.486E-03
  -0.898  0.190E-03  0.190E-03
  -0.798  0.597E-04  0.597E-04
  -0.698  0.149E-04  0.149E-04
  -0.598  0.293E-05  0.293E-05
  -0.498  0.456E-06  0.456E-06
  -0.398  0.559E-07  0.559E-07
  -0.298  0.538E-08  0.538E-08
  -0.198  0.542E-09  0.542E-09
  -0.098  0.243E-08  0.243E-08
   0.002  0.327E-07  0.327E-07
   0.102  0.343E-06  0.343E-06
   0.202  0.281E-05  0.281E-05
   0.302  0.179E-04  0.179E-04
   0.402  0.897E-04  0.897E-04
   0.502  0.357E-03  0.357E-03
   0.602  0.114E-02  0.114E-02
   0.702  0.297E-02  0.297E-02
   0.802  0.641E-02  0.641E-02
   0.902  0.117E-01  0.117E-01
   1.002  0.182E-01  0.182E-01
   1.102  0.246E-01  0.246E-01
   1.202  0.293E-01  0.293E-01
   1.302  0.318E-01  0.318E-01
   1.402  0.327E-01  0.327E-01
   1.502  0.333E-01  0.333E-01
   1.602  0.341E-01  0.341E-01
   1.702  0.341E-01  0.341E-01
   1.802  0.324E-01  0.324E-01
   1.902  0.286E-01  0.286E-01
   2.002  0.230E-01  0.230E-01
   2.102  0.163E-01  0.163E-01
   2.202  0.990E-02  0.990E-02
   2.302  0.500E-02  0.500E-02
   2.402  0.206E-02  0.206E-02
   2.502  0.686E-03  0.686E-03
   2.602  0.182E-03  0.182E-03
   2.702  0.387E-04  0.387E-04
   2.802  0.657E-05  0.657E-05
   2.902  0.893E-06  0.893E-06
   3.002  0.976E-07  0.976E-07
   3.102  0.857E-08  0.857E-08
   3.202  0.605E-09  0.605E-09
