# E (eV)   ldos(E)   pdos(E)   
 -16.398  0.141E-05  0.141E-05
 -16.298  0.126E-04  0.126E-04
 -16.198  0.872E-04  0.872E-04
 -16.098  0.468E-03  0.468E-03
 -15.998  0.196E-02  0.196E-02
 -15.898  0.646E-02  0.646E-02
 -15.798  0.169E-01  0.169E-01
 -15.698  0.354E-01  0.354E-01
 -15.598  0.610E-01  0.610E-01
 -15.498  0.881E-01  0.881E-01
 -15.398  0.111E+00  0.111E+00
 -15.298  0.126E+00  0.126E+00
 -15.198  0.136E+00  0.136E+00
 -15.098  0.142E+00  0.142E+00
 -14.998  0.147E+00  0.147E+00
 -14.898  0.152E+00  0.152E+00
 -14.798  0.160E+00  0.160E+00
 -14.698  0.172E+00  0.172E+00
 -14.598  0.194E+00  0.194E+00
 -14.498  0.232E+00  0.232E+00
 -14.398  0.286E+00  0.286E+00
 -14.298  0.351E+00  0.351E+00
 -14.198  0.418E+00  0.418E+00
 -14.098  0.480E+00  0.480E+00
 -13.998  0.542E+00  0.542E+00
 -13.898  0.611E+00  0.611E+00
 -13.798  0.697E+00  0.697E+00
 -13.698  0.797E+00  0.797E+00
 -13.598  0.899E+00  0.899E+00
 -13.498  0.983E+00  0.983E+00
 -13.398  0.103E+01  0.103E+01
 -13.298  0.101E+01  0.101E+01
 -13.198  0.927E+00  0.927E+00
 -13.098  0.765E+00  0.765E+00
 -12.998  0.553E+00  0.553E+00
 -12.898  0.340E+00  0.340E+00
 -12.798  0.174E+00  0.174E+00
 -12.698  0.732E-01  0.732E-01
 -12.598  0.247E-01  0.247E-01
 -12.498  0.666E-02  0.666E-02
 -12.398  0.142E-02  0.142E-02
 -12.298  0.236E-03  0.236E-03
 -12.198  0.306E-04  0.306E-04
 -12.098  0.308E-05  0.308E-05
 -11.998  0.240E-06  0.240E-06
 -11.898  0.145E-07  0.145E-07
 -11.798  0.669E-09  0.669E-09
 -11.698  0.238E-10  0.238E-10
 -11.598  0.635E-12  0.635E-12
 -11.498  0.000E+00  0.000E+00
 -11.398  0.000E+00  0.000E+00
 -11.298  0.000E+00  0.000E+00
 -11.198  0.000E+00  0.000E+00
 -11.098  0.000E+00  0.000E+00
 -10.998  0.000E+00  0.000E+00
 -10.898  0.000E+00  0.000E+00
 -10.798  0.000E+00  0.000E+00
 -10.698  0.000E+00  0.000E+00
 -10.598  0.000E+00  0.000E+00
 -10.498  0.000E+00  0.000E+00
 -10.398  0.000E+00  0.000E+00
 -10.298  0.000E+00  0.000E+00
 -10.198  0.000E+00  0.000E+00
 -10.098  0.000E+00  0.000E+00
  -9.998  0.000E+00  0.000E+00
  -9.898  0.000E+00  0.000E+00
  -9.798  0.000E+00  0.000E+00
  -9.698  0.000E+00  0.000E+00
  -9.598  0.000E+00  0.000E+00
  -9.498  0.000E+00  0.000E+00
  -9.398  0.000E+00  0.000E+00
  -9.298  0.000E+00  0.000E+00
  -9.198  0.000E+00  0.000E+00
  -9.098  0.000E+00  0.000E+00
  -8.998  0.000E+00  0.000E+00
  -8.898  0.000E+00  0.000E+00
  -8.798  0.000E+00  0.000E+00
  -8.698  0.408E-15  0.408E-15
  -8.598  0.196E-13  0.196E-13
  -8.498  0.646E-12  0.646E-12
  -8.398  0.163E-10  0.163E-10
  -8.298  0.317E-09  0.317E-09
  -8.198  0.474E-08  0.474E-08
  -8.098  0.547E-07  0.547E-07
  -7.998  0.488E-06  0.488E-06
  -7.898  0.338E-05  0.338E-05
  -7.798  0.183E-04  0.183E-04
  -7.698  0.778E-04  0.778E-04
  -7.598  0.264E-03  0.264E-03
  -7.498  0.726E-03  0.726E-03
  -7.398  0.166E-02  0.166E-02
  -7.298  0.324E-02  0.324E-02
  -7.198  0.553E-02  0.553E-02
  -7.098  0.845E-02  0.845E-02
  -6.998  0.117E-01  0.117E-01
  -6.898  0.149E-01  0.149E-01
  -6.798  0.180E-01  0.180E-01
  -6.698  0.210E-01  0.210E-01
  -6.598  0.237E-01  0.237E-01
  -6.498  0.257E-01  0.257E-01
  -6.398  0.260E-01  0.260E-01
  -6.298  0.240E-01  0.240E-01
  -6.198  0.205E-01  0.205E-01
  -6.098  0.166E-01  0.166E-01
  -5.998  0.135E-01  0.135E-01
  -5.898  0.115E-01  0.115E-01
  -5.798  0.114E-01  0.114E-01
  -5.698  0.147E-01  0.147E-01
  -5.598  0.242E-01  0.242E-01
  -5.498  0.426E-01  0.426E-01
  -5.398  0.694E-01  0.694E-01
  -5.298  0.991E-01  0.991E-01
  -5.198  0.122E+00  0.122E+00
  -5.098  0.131E+00  0.131E+00
  -4.998  0.124E+00  0.124E+00
  -4.898  0.105E+00  0.105E+00
  -4.798  0.818E-01  0.818E-01
  -4.698  0.623E-01  0.623E-01
  -4.598  0.482E-01  0.482E-01
  -4.498  0.383E-01  0.383E-01
  -4.398  0.307E-01  0.307E-01
  -4.298  0.241E-01  0.241E-01
  -4.198  0.189E-01  0.189E-01
  -4.098  0.151E-01  0.151E-01
  -3.998  0.126E-01  0.126E-01
  -3.898  0.109E-01  0.109E-01
  -3.798  0.984E-02  0.984E-02
  -3.698  0.977E-02  0.977E-02
  -3.598  0.110E-01  0.110E-01
  -3.498  0.148E-01  0.148E-01
  -3.398  0.229E-01  0.229E-01
  -3.298  0.357E-01  0.357E-01
  -3.198  0.510E-01  0.510E-01
  -3.098  0.635E-01  0.635E-01
  -2.998  0.686E-01  0.686E-01
  -2.898  0.653E-01  0.653E-01
  -2.798  0.566E-01  0.566E-01
  -2.698  0.468E-01  0.468E-01
  -2.598  0.387E-01  0.387E-01
  -2.498  0.327E-01  0.327E-01
  -2.398  0.287E-01  0.287E-01
  -2.298  0.263E-01  0.263E-01
  -2.198  0.253E-01  0.253E-01
  -2.098  0.251E-01  0.251E-01
  -1.998  0.248E-01  0.248E-01
  -1.898  0.237E-01  0.237E-01
  -1.798  0.212E-01  0.212E-01
  -1.698  0.179E-01  0.179E-01
  -1.598  0.144E-01  0.144E-01
  -1.498  0.114E-01  0.114E-01
  -1.398  0.879E-02  0.879E-02
  -1.298  0.634E-02  0.634E-02
  -1.198  0.407E-02  0.407E-02
  -1.098  0.222E-02  0.222E-02
  -0.998  0.998E-03  0.998E-03
  -0.898  0.361E-03  0.361E-03
  -0.798  0.103E-03  0.103E-03
  -0.698  0.232E-04  0.232E-04
  -0.598  0.406E-05  0.406E-05
  -0.498  0.551E-06  0.551E-06
  -0.398  0.578E-07  0.578E-07
  -0.298  0.468E-08  0.468E-08
  -0.198  0.339E-09  0.339E-09
  -0.098  0.912E-09  0.912E-09
   0.002  0.132E-07  0.132E-07
   0.102  0.149E-06  0.149E-06
   0.202  0.130E-05  0.130E-05
   0.302  0.886E-05  0.886E-05
   0.402  0.470E-04  0.470E-04
   0.502  0.196E-03  0.196E-03
   0.602  0.646E-03  0.646E-03
   0.702  0.171E-02  0.171E-02
   0.802  0.364E-02  0.364E-02
   0.902  0.639E-02  0.639E-02
   1.002  0.937E-02  0.937E-02
   1.102  0.117E-01  0.117E-01
   1.202  0.131E-01  0.131E-01
   1.302  0.143E-01  0.143E-01
   1.402  0.177E-01  0.177E-01
   1.502  0.254E-01  0.254E-01
   1.602  0.368E-01  0.368E-01
   1.702  0.480E-01  0.480E-01
   1.802  0.540E-01  0.540E-01
   1.902  0.521E-01  0.521E-01
   2.002  0.435E-01  0.435E-01
   2.102  0.314E-01  0.314E-01
   2.202  0.194E-01  0.194E-01
   2.302  0.101E-01  0.101E-01
   2.402  0.431E-02  0.431E-02
   2.502  0.148E-02  0.148E-02
   2.602  0.402E-03  0.402E-03
   2.702  0.862E-04  0.862E-04
   2.802  0.145E-04  0.145E-04
   2.902  0.191E-05  0.191E-05
   3.002  0.197E-06  0.197E-06
   3.102  0.161E-07  0.161E-07
   3.202  0.103E-08  0.103E-08
