# E (eV)   ldos(E)   pdos(E)    pdos(E)    pdos(E)   
 -16.398  0.497E-07  0.445E-07  0.264E-08  0.263E-08
 -16.298  0.448E-06  0.396E-06  0.261E-07  0.261E-07
 -16.198  0.313E-05  0.273E-05  0.202E-06  0.202E-06
 -16.098  0.171E-04  0.146E-04  0.123E-05  0.123E-05
 -15.998  0.728E-04  0.609E-04  0.591E-05  0.590E-05
 -15.898  0.245E-03  0.200E-03  0.227E-04  0.226E-04
 -15.798  0.658E-03  0.518E-03  0.702E-04  0.701E-04
 -15.698  0.143E-02  0.108E-02  0.178E-03  0.177E-03
 -15.598  0.257E-02  0.183E-02  0.375E-03  0.373E-03
 -15.498  0.392E-02  0.258E-02  0.672E-03  0.670E-03
 -15.398  0.523E-02  0.313E-02  0.105E-02  0.105E-02
 -15.298  0.631E-02  0.336E-02  0.148E-02  0.147E-02
 -15.198  0.712E-02  0.331E-02  0.191E-02  0.190E-02
 -15.098  0.773E-02  0.309E-02  0.232E-02  0.232E-02
 -14.998  0.828E-02  0.286E-02  0.271E-02  0.270E-02
 -14.898  0.886E-02  0.275E-02  0.306E-02  0.305E-02
 -14.798  0.955E-02  0.280E-02  0.338E-02  0.337E-02
 -14.698  0.104E-01  0.304E-02  0.368E-02  0.367E-02
 -14.598  0.114E-01  0.347E-02  0.397E-02  0.397E-02
 -14.498  0.127E-01  0.406E-02  0.431E-02  0.430E-02
 -14.398  0.142E-01  0.478E-02  0.472E-02  0.471E-02
 -14.298  0.160E-01  0.551E-02  0.524E-02  0.523E-02
 -14.198  0.178E-01  0.613E-02  0.586E-02  0.585E-02
 -14.098  0.196E-01  0.654E-02  0.652E-02  0.651E-02
 -13.998  0.211E-01  0.684E-02  0.715E-02  0.714E-02
 -13.898  0.226E-01  0.723E-02  0.767E-02  0.766E-02
 -13.798  0.240E-01  0.796E-02  0.801E-02  0.800E-02
 -13.698  0.252E-01  0.900E-02  0.810E-02  0.810E-02
 -13.598  0.257E-01  0.996E-02  0.788E-02  0.787E-02
 -13.498  0.249E-01  0.102E-01  0.732E-02  0.731E-02
 -13.398  0.224E-01  0.954E-02  0.644E-02  0.642E-02
 -13.298  0.186E-01  0.799E-02  0.530E-02  0.529E-02
 -13.198  0.141E-01  0.604E-02  0.402E-02  0.401E-02
 -13.098  0.960E-02  0.412E-02  0.274E-02  0.274E-02
 -12.998  0.579E-02  0.251E-02  0.164E-02  0.164E-02
 -12.898  0.302E-02  0.133E-02  0.840E-03  0.843E-03
 -12.798  0.133E-02  0.606E-03  0.361E-03  0.363E-03
 -12.698  0.487E-03  0.230E-03  0.128E-03  0.129E-03
 -12.598  0.146E-03  0.715E-04  0.370E-04  0.373E-04
 -12.498  0.353E-04  0.180E-04  0.861E-05  0.869E-05
 -12.398  0.682E-05  0.360E-05  0.160E-05  0.161E-05
 -12.298  0.104E-05  0.572E-06  0.235E-06  0.238E-06
 -12.198  0.126E-06  0.713E-07  0.272E-07  0.275E-07
 -12.098  0.119E-07  0.694E-08  0.247E-08  0.250E-08
 -11.998  0.876E-09  0.525E-09  0.175E-09  0.177E-09
 -11.898  0.501E-10  0.307E-10  0.963E-11  0.971E-11
 -11.798  0.222E-11  0.139E-11  0.411E-12  0.414E-12
 -11.698  0.754E-13  0.484E-13  0.134E-13  0.135E-13
 -11.598  0.186E-14  0.124E-14  0.309E-15  0.311E-15
 -11.498  0.000E+00  0.000E+00  0.000E+00  0.000E+00
 -11.398  0.000E+00  0.000E+00  0.000E+00  0.000E+00
 -11.298  0.000E+00  0.000E+00  0.000E+00  0.000E+00
 -11.198  0.000E+00  0.000E+00  0.000E+00  0.000E+00
 -11.098  0.000E+00  0.000E+00  0.000E+00  0.000E+00
 -10.998  0.000E+00  0.000E+00  0.000E+00  0.000E+00
 -10.898  0.000E+00  0.000E+00  0.000E+00  0.000E+00
 -10.798  0.000E+00  0.000E+00  0.000E+00  0.000E+00
 -10.698  0.000E+00  0.000E+00  0.000E+00  0.000E+00
 -10.598  0.000E+00  0.000E+00  0.000E+00  0.000E+00
 -10.498  0.000E+00  0.000E+00  0.000E+00  0.000E+00
 -10.398  0.000E+00  0.000E+00  0.000E+00  0.000E+00
 -10.298  0.000E+00  0.000E+00  0.000E+00  0.000E+00
 -10.198  0.000E+00  0.000E+00  0.000E+00  0.000E+00
 -10.098  0.000E+00  0.000E+00  0.000E+00  0.000E+00
  -9.998  0.000E+00  0.000E+00  0.000E+00  0.000E+00
  -9.898  0.000E+00  0.000E+00  0.000E+00  0.000E+00
  -9.798  0.000E+00  0.000E+00  0.000E+00  0.000E+00
  -9.698  0.000E+00  0.000E+00  0.000E+00  0.000E+00
  -9.598  0.000E+00  0.000E+00  0.000E+00  0.000E+00
  -9.498  0.000E+00  0.000E+00  0.000E+00  0.000E+00
  -9.398  0.000E+00  0.000E+00  0.000E+00  0.000E+00
  -9.298  0.000E+00  0.000E+00  0.000E+00  0.000E+00
  -9.198  0.000E+00  0.000E+00  0.000E+00  0.000E+00
  -9.098  0.000E+00  0.000E+00  0.000E+00  0.000E+00
  -8.998  0.000E+00  0.000E+00  0.000E+00  0.000E+00
  -8.898  0.000E+00  0.000E+00  0.000E+00  0.000E+00
  -8.798  0.000E+00  0.000E+00  0.000E+00  0.000E+00
  -8.698  0.256E-13  0.118E-15  0.127E-13  0.128E-13
  -8.598  0.123E-11  0.551E-14  0.610E-12  0.611E-12
  -8.498  0.405E-10  0.181E-12  0.201E-10  0.202E-10
  -8.398  0.102E-08  0.455E-11  0.508E-09  0.509E-09
  -8.298  0.198E-07  0.880E-10  0.986E-08  0.986E-08
  -8.198  0.296E-06  0.131E-08  0.147E-06  0.147E-06
  -8.098  0.340E-05  0.151E-07  0.169E-05  0.169E-05
  -7.998  0.302E-04  0.134E-06  0.150E-04  0.151E-04
  -7.898  0.208E-03  0.938E-06  0.104E-03  0.104E-03
  -7.798  0.111E-02  0.522E-05  0.555E-03  0.555E-03
  -7.698  0.466E-02  0.240E-04  0.232E-02  0.232E-02
  -7.598  0.154E-01  0.972E-04  0.763E-02  0.763E-02
  -7.498  0.402E-01  0.368E-03  0.199E-01  0.199E-01
  -7.398  0.854E-01  0.134E-02  0.420E-01  0.420E-01
  -7.298  0.151E+00  0.447E-02  0.732E-01  0.731E-01
  -7.198  0.230E+00  0.131E-01  0.109E+00  0.109E+00
  -7.098  0.320E+00  0.323E-01  0.144E+00  0.144E+00
  -6.998  0.427E+00  0.672E-01  0.180E+00  0.180E+00
  -6.898  0.559E+00  0.119E+00  0.220E+00  0.220E+00
  -6.798  0.709E+00  0.180E+00  0.265E+00  0.265E+00
  -6.698  0.855E+00  0.240E+00  0.307E+00  0.307E+00
  -6.598  0.956E+00  0.281E+00  0.338E+00  0.338E+00
  -6.498  0.982E+00  0.290E+00  0.346E+00  0.346E+00
  -6.398  0.922E+00  0.263E+00  0.329E+00  0.329E+00
  -6.298  0.795E+00  0.213E+00  0.291E+00  0.291E+00
  -6.198  0.643E+00  0.159E+00  0.242E+00  0.242E+00
  -6.098  0.506E+00  0.119E+00  0.194E+00  0.194E+00
  -5.998  0.405E+00  0.965E-01  0.155E+00  0.154E+00
  -5.898  0.340E+00  0.855E-01  0.127E+00  0.127E+00
  -5.798  0.301E+00  0.802E-01  0.111E+00  0.111E+00
  -5.698  0.291E+00  0.837E-01  0.104E+00  0.103E+00
  -5.598  0.317E+00  0.106E+00  0.106E+00  0.105E+00
  -5.498  0.388E+00  0.154E+00  0.117E+00  0.117E+00
  -5.398  0.495E+00  0.222E+00  0.137E+00  0.136E+00
  -5.298  0.609E+00  0.288E+00  0.161E+00  0.160E+00
  -5.198  0.692E+00  0.331E+00  0.181E+00  0.180E+00
  -5.098  0.716E+00  0.337E+00  0.189E+00  0.189E+00
  -4.998  0.686E+00  0.312E+00  0.187E+00  0.187E+00
  -4.898  0.643E+00  0.276E+00  0.184E+00  0.184E+00
  -4.798  0.648E+00  0.251E+00  0.199E+00  0.198E+00
  -4.698  0.735E+00  0.253E+00  0.242E+00  0.241E+00
  -4.598  0.881E+00  0.272E+00  0.305E+00  0.303E+00
  -4.498  0.100E+01  0.289E+00  0.358E+00  0.357E+00
  -4.398  0.103E+01  0.285E+00  0.372E+00  0.371E+00
  -4.298  0.932E+00  0.255E+00  0.338E+00  0.339E+00
  -4.198  0.772E+00  0.214E+00  0.279E+00  0.280E+00
  -4.098  0.618E+00  0.176E+00  0.221E+00  0.222E+00
  -3.998  0.508E+00  0.148E+00  0.180E+00  0.181E+00
  -3.898  0.447E+00  0.131E+00  0.158E+00  0.158E+00
  -3.798  0.425E+00  0.125E+00  0.150E+00  0.150E+00
  -3.698  0.431E+00  0.129E+00  0.151E+00  0.151E+00
  -3.598  0.452E+00  0.139E+00  0.157E+00  0.156E+00
  -3.498  0.488E+00  0.155E+00  0.167E+00  0.166E+00
  -3.398  0.552E+00  0.183E+00  0.184E+00  0.184E+00
  -3.298  0.651E+00  0.231E+00  0.210E+00  0.210E+00
  -3.198  0.772E+00  0.294E+00  0.239E+00  0.240E+00
  -3.098  0.879E+00  0.356E+00  0.261E+00  0.262E+00
  -2.998  0.934E+00  0.395E+00  0.269E+00  0.270E+00
  -2.898  0.924E+00  0.399E+00  0.262E+00  0.263E+00
  -2.798  0.868E+00  0.378E+00  0.245E+00  0.245E+00
  -2.698  0.801E+00  0.348E+00  0.226E+00  0.227E+00
  -2.598  0.750E+00  0.324E+00  0.212E+00  0.213E+00
  -2.498  0.722E+00  0.311E+00  0.205E+00  0.206E+00
  -2.398  0.712E+00  0.302E+00  0.204E+00  0.205E+00
  -2.298  0.701E+00  0.290E+00  0.205E+00  0.206E+00
  -2.198  0.671E+00  0.267E+00  0.202E+00  0.202E+00
  -2.098  0.617E+00  0.233E+00  0.191E+00  0.192E+00
  -1.998  0.550E+00  0.197E+00  0.176E+00  0.176E+00
  -1.898  0.486E+00  0.167E+00  0.159E+00  0.160E+00
  -1.798  0.433E+00  0.148E+00  0.143E+00  0.143E+00
  -1.698  0.390E+00  0.139E+00  0.125E+00  0.125E+00
  -1.598  0.349E+00  0.136E+00  0.107E+00  0.106E+00
  -1.498  0.306E+00  0.134E+00  0.862E-01  0.858E-01
  -1.398  0.255E+00  0.124E+00  0.659E-01  0.655E-01
  -1.298  0.195E+00  0.101E+00  0.471E-01  0.468E-01
  -1.198  0.132E+00  0.706E-01  0.310E-01  0.309E-01
  -1.098  0.774E-01  0.406E-01  0.184E-01  0.183E-01
  -0.998  0.381E-01  0.190E-01  0.955E-02  0.952E-02
  -0.898  0.155E-01  0.712E-02  0.420E-02  0.419E-02
  -0.798  0.519E-02  0.213E-02  0.153E-02  0.153E-02
  -0.698  0.141E-02  0.508E-03  0.449E-03  0.449E-03
  -0.598  0.307E-03  0.962E-04  0.105E-03  0.105E-03
  -0.498  0.534E-04  0.145E-04  0.195E-04  0.195E-04
  -0.398  0.737E-05  0.173E-05  0.282E-05  0.282E-05
  -0.298  0.799E-06  0.165E-06  0.317E-06  0.317E-06
  -0.198  0.694E-07  0.128E-07  0.283E-07  0.283E-07
  -0.098  0.354E-07  0.725E-08  0.140E-07  0.141E-07
   0.002  0.444E-06  0.939E-07  0.175E-06  0.176E-06
   0.102  0.493E-05  0.105E-05  0.194E-05  0.195E-05
   0.202  0.425E-04  0.906E-05  0.166E-04  0.168E-04
   0.302  0.285E-03  0.611E-04  0.111E-03  0.112E-03
   0.402  0.149E-02  0.323E-03  0.582E-03  0.586E-03
   0.502  0.615E-02  0.135E-02  0.239E-02  0.241E-02
   0.602  0.201E-01  0.450E-02  0.779E-02  0.785E-02
   0.702  0.530E-01  0.121E-01  0.204E-01  0.205E-01
   0.802  0.114E+00  0.269E-01  0.433E-01  0.436E-01
   0.902  0.203E+00  0.501E-01  0.762E-01  0.766E-01
   1.002  0.308E+00  0.797E-01  0.114E+00  0.114E+00
   1.102  0.406E+00  0.110E+00  0.148E+00  0.148E+00
   1.202  0.480E+00  0.133E+00  0.173E+00  0.173E+00
   1.302  0.529E+00  0.145E+00  0.192E+00  0.192E+00
   1.402  0.570E+00  0.148E+00  0.211E+00  0.211E+00
   1.502  0.618E+00  0.147E+00  0.236E+00  0.236E+00
   1.602  0.670E+00  0.150E+00  0.260E+00  0.260E+00
   1.702  0.704E+00  0.157E+00  0.273E+00  0.274E+00
   1.802  0.697E+00  0.160E+00  0.268E+00  0.269E+00
   1.902  0.642E+00  0.154E+00  0.243E+00  0.245E+00
   2.002  0.545E+00  0.135E+00  0.204E+00  0.206E+00
   2.102  0.419E+00  0.106E+00  0.155E+00  0.158E+00
   2.202  0.285E+00  0.724E-01  0.105E+00  0.108E+00
   2.302  0.166E+00  0.418E-01  0.607E-01  0.631E-01
   2.402  0.805E-01  0.200E-01  0.294E-01  0.311E-01
   2.502  0.321E-01  0.777E-02  0.117E-01  0.127E-01
   2.602  0.104E-01  0.244E-02  0.376E-02  0.423E-02
   2.702  0.274E-02  0.617E-03  0.976E-03  0.114E-02
   2.802  0.577E-03  0.125E-03  0.203E-03  0.250E-03
   2.902  0.976E-04  0.201E-04  0.336E-04  0.439E-04
   3.002  0.132E-04  0.259E-05  0.442E-05  0.617E-05
   3.102  0.141E-05  0.264E-06  0.461E-06  0.687E-06
   3.202  0.120E-06  0.214E-07  0.379E-07  0.605E-07
