# E (eV)   ldos(E)   pdos(E)    pdos(E)    pdos(E)   
 -16.398  0.495E-07  0.442E-07  0.264E-08  0.264E-08
 -16.298  0.446E-06  0.394E-06  0.261E-07  0.261E-07
 -16.198  0.312E-05  0.271E-05  0.202E-06  0.202E-06
 -16.098  0.170E-04  0.145E-04  0.123E-05  0.123E-05
 -15.998  0.724E-04  0.606E-04  0.591E-05  0.592E-05
 -15.898  0.244E-03  0.198E-03  0.227E-04  0.227E-04
 -15.798  0.655E-03  0.514E-03  0.702E-04  0.703E-04
 -15.698  0.142E-02  0.107E-02  0.178E-03  0.178E-03
 -15.598  0.255E-02  0.180E-02  0.375E-03  0.375E-03
 -15.498  0.387E-02  0.252E-02  0.672E-03  0.673E-03
 -15.398  0.511E-02  0.300E-02  0.105E-02  0.105E-02
 -15.298  0.610E-02  0.314E-02  0.147E-02  0.148E-02
 -15.198  0.681E-02  0.300E-02  0.190E-02  0.191E-02
 -15.098  0.738E-02  0.275E-02  0.232E-02  0.232E-02
 -14.998  0.795E-02  0.255E-02  0.270E-02  0.270E-02
 -14.898  0.860E-02  0.251E-02  0.305E-02  0.305E-02
 -14.798  0.936E-02  0.262E-02  0.337E-02  0.337E-02
 -14.698  0.102E-01  0.288E-02  0.367E-02  0.367E-02
 -14.598  0.112E-01  0.328E-02  0.396E-02  0.396E-02
 -14.498  0.124E-01  0.383E-02  0.430E-02  0.430E-02
 -14.398  0.139E-01  0.450E-02  0.471E-02  0.471E-02
 -14.298  0.156E-01  0.516E-02  0.524E-02  0.523E-02
 -14.198  0.174E-01  0.570E-02  0.586E-02  0.585E-02
 -14.098  0.191E-01  0.608E-02  0.652E-02  0.650E-02
 -13.998  0.207E-01  0.640E-02  0.714E-02  0.712E-02
 -13.898  0.222E-01  0.685E-02  0.766E-02  0.764E-02
 -13.798  0.236E-01  0.766E-02  0.801E-02  0.798E-02
 -13.698  0.250E-01  0.880E-02  0.810E-02  0.807E-02
 -13.598  0.256E-01  0.991E-02  0.788E-02  0.786E-02
 -13.498  0.250E-01  0.104E-01  0.732E-02  0.730E-02
 -13.398  0.227E-01  0.984E-02  0.643E-02  0.642E-02
 -13.298  0.189E-01  0.835E-02  0.530E-02  0.529E-02
 -13.198  0.144E-01  0.636E-02  0.403E-02  0.401E-02
 -13.098  0.986E-02  0.437E-02  0.275E-02  0.273E-02
 -12.998  0.597E-02  0.269E-02  0.165E-02  0.163E-02
 -12.898  0.313E-02  0.144E-02  0.851E-03  0.835E-03
 -12.798  0.139E-02  0.663E-03  0.367E-03  0.359E-03
 -12.698  0.511E-03  0.253E-03  0.131E-03  0.127E-03
 -12.598  0.154E-03  0.790E-04  0.378E-04  0.367E-04
 -12.498  0.372E-04  0.199E-04  0.879E-05  0.854E-05
 -12.398  0.719E-05  0.398E-05  0.163E-05  0.159E-05
 -12.298  0.110E-05  0.629E-06  0.240E-06  0.233E-06
 -12.198  0.133E-06  0.780E-07  0.278E-07  0.270E-07
 -12.098  0.125E-07  0.755E-08  0.252E-08  0.245E-08
 -11.998  0.920E-09  0.569E-09  0.178E-09  0.173E-09
 -11.898  0.525E-10  0.332E-10  0.981E-11  0.954E-11
 -11.798  0.232E-11  0.150E-11  0.418E-12  0.407E-12
 -11.698  0.788E-13  0.519E-13  0.137E-13  0.133E-13
 -11.598  0.194E-14  0.132E-14  0.314E-15  0.306E-15
 -11.498  0.000E+00  0.000E+00  0.000E+00  0.000E+00
 -11.398  0.000E+00  0.000E+00  0.000E+00  0.000E+00
 -11.298  0.000E+00  0.000E+00  0.000E+00  0.000E+00
 -11.198  0.000E+00  0.000E+00  0.000E+00  0.000E+00
 -11.098  0.000E+00  0.000E+00  0.000E+00  0.000E+00
 -10.998  0.000E+00  0.000E+00  0.000E+00  0.000E+00
 -10.898  0.000E+00  0.000E+00  0.000E+00  0.000E+00
 -10.798  0.000E+00  0.000E+00  0.000E+00  0.000E+00
 -10.698  0.000E+00  0.000E+00  0.000E+00  0.000E+00
 -10.598  0.000E+00  0.000E+00  0.000E+00  0.000E+00
 -10.498  0.000E+00  0.000E+00  0.000E+00  0.000E+00
 -10.398  0.000E+00  0.000E+00  0.000E+00  0.000E+00
 -10.298  0.000E+00  0.000E+00  0.000E+00  0.000E+00
 -10.198  0.000E+00  0.000E+00  0.000E+00  0.000E+00
 -10.098  0.000E+00  0.000E+00  0.000E+00  0.000E+00
  -9.998  0.000E+00  0.000E+00  0.000E+00  0.000E+00
  -9.898  0.000E+00  0.000E+00  0.000E+00  0.000E+00
  -9.798  0.000E+00  0.000E+00  0.000E+00  0.000E+00
  -9.698  0.000E+00  0.000E+00  0.000E+00  0.000E+00
  -9.598  0.000E+00  0.000E+00  0.000E+00  0.000E+00
  -9.498  0.000E+00  0.000E+00  0.000E+00  0.000E+00
  -9.398  0.000E+00  0.000E+00  0.000E+00  0.000E+00
  -9.298  0.000E+00  0.000E+00  0.000E+00  0.000E+00
  -9.198  0.000E+00  0.000E+00  0.000E+00  0.000E+00
  -9.098  0.000E+00  0.000E+00  0.000E+00  0.000E+00
  -8.998  0.000E+00  0.000E+00  0.000E+00  0.000E+00
  -8.898  0.000E+00  0.000E+00  0.000E+00  0.000E+00
  -8.798  0.000E+00  0.000E+00  0.000E+00  0.000E+00
  -8.698  0.255E-13  0.873E-16  0.127E-13  0.127E-13
  -8.598  0.122E-11  0.430E-14  0.606E-12  0.610E-12
  -8.498  0.403E-10  0.143E-12  0.200E-10  0.201E-10
  -8.398  0.102E-08  0.365E-11  0.505E-09  0.508E-09
  -8.298  0.197E-07  0.717E-10  0.979E-08  0.984E-08
  -8.198  0.294E-06  0.108E-08  0.146E-06  0.147E-06
  -8.098  0.338E-05  0.126E-07  0.168E-05  0.169E-05
  -7.998  0.301E-04  0.114E-06  0.149E-04  0.150E-04
  -7.898  0.207E-03  0.812E-06  0.103E-03  0.103E-03
  -7.798  0.111E-02  0.461E-05  0.550E-03  0.553E-03
  -7.698  0.464E-02  0.218E-04  0.230E-02  0.231E-02
  -7.598  0.153E-01  0.912E-04  0.757E-02  0.761E-02
  -7.498  0.400E-01  0.359E-03  0.198E-01  0.199E-01
  -7.398  0.851E-01  0.135E-02  0.418E-01  0.419E-01
  -7.298  0.150E+00  0.460E-02  0.727E-01  0.730E-01
  -7.198  0.230E+00  0.136E-01  0.108E+00  0.108E+00
  -7.098  0.321E+00  0.339E-01  0.144E+00  0.144E+00
  -6.998  0.430E+00  0.709E-01  0.180E+00  0.180E+00
  -6.898  0.565E+00  0.126E+00  0.220E+00  0.219E+00
  -6.798  0.720E+00  0.192E+00  0.264E+00  0.264E+00
  -6.698  0.870E+00  0.256E+00  0.307E+00  0.307E+00
  -6.598  0.976E+00  0.301E+00  0.338E+00  0.337E+00
  -6.498  0.100E+01  0.311E+00  0.346E+00  0.345E+00
  -6.398  0.941E+00  0.283E+00  0.329E+00  0.329E+00
  -6.298  0.809E+00  0.228E+00  0.291E+00  0.291E+00
  -6.198  0.651E+00  0.167E+00  0.242E+00  0.242E+00
  -6.098  0.508E+00  0.121E+00  0.193E+00  0.193E+00
  -5.998  0.403E+00  0.949E-01  0.154E+00  0.154E+00
  -5.898  0.337E+00  0.831E-01  0.127E+00  0.127E+00
  -5.798  0.300E+00  0.794E-01  0.110E+00  0.110E+00
  -5.698  0.292E+00  0.857E-01  0.103E+00  0.103E+00
  -5.598  0.321E+00  0.111E+00  0.105E+00  0.105E+00
  -5.498  0.394E+00  0.161E+00  0.117E+00  0.117E+00
  -5.398  0.503E+00  0.230E+00  0.136E+00  0.137E+00
  -5.298  0.620E+00  0.299E+00  0.160E+00  0.161E+00
  -5.198  0.704E+00  0.343E+00  0.180E+00  0.181E+00
  -5.098  0.728E+00  0.350E+00  0.189E+00  0.190E+00
  -4.998  0.696E+00  0.323E+00  0.186E+00  0.187E+00
  -4.898  0.650E+00  0.283E+00  0.183E+00  0.184E+00
  -4.798  0.650E+00  0.256E+00  0.196E+00  0.198E+00
  -4.698  0.735E+00  0.254E+00  0.239E+00  0.242E+00
  -4.598  0.881E+00  0.274E+00  0.302E+00  0.305E+00
  -4.498  0.101E+01  0.293E+00  0.356E+00  0.359E+00
  -4.398  0.104E+01  0.291E+00  0.372E+00  0.373E+00
  -4.298  0.944E+00  0.264E+00  0.340E+00  0.339E+00
  -4.198  0.785E+00  0.224E+00  0.281E+00  0.280E+00
  -4.098  0.629E+00  0.184E+00  0.223E+00  0.222E+00
  -3.998  0.516E+00  0.154E+00  0.181E+00  0.181E+00
  -3.898  0.452E+00  0.135E+00  0.158E+00  0.158E+00
  -3.798  0.428E+00  0.128E+00  0.149E+00  0.150E+00
  -3.698  0.432E+00  0.131E+00  0.150E+00  0.151E+00
  -3.598  0.452E+00  0.140E+00  0.155E+00  0.157E+00
  -3.498  0.489E+00  0.156E+00  0.166E+00  0.167E+00
  -3.398  0.554E+00  0.186E+00  0.184E+00  0.184E+00
  -3.298  0.657E+00  0.236E+00  0.210E+00  0.210E+00
  -3.198  0.782E+00  0.303E+00  0.239E+00  0.239E+00
  -3.098  0.893E+00  0.370E+00  0.262E+00  0.261E+00
  -2.998  0.949E+00  0.409E+00  0.270E+00  0.269E+00
  -2.898  0.934E+00  0.410E+00  0.263E+00  0.262E+00
  -2.798  0.870E+00  0.380E+00  0.246E+00  0.244E+00
  -2.698  0.795E+00  0.341E+00  0.227E+00  0.226E+00
  -2.598  0.740E+00  0.313E+00  0.214E+00  0.213E+00
  -2.498  0.715E+00  0.302E+00  0.207E+00  0.206E+00
  -2.398  0.713E+00  0.301E+00  0.206E+00  0.205E+00
  -2.298  0.711E+00  0.299E+00  0.207E+00  0.205E+00
  -2.198  0.688E+00  0.284E+00  0.203E+00  0.201E+00
  -2.098  0.636E+00  0.253E+00  0.192E+00  0.191E+00
  -1.998  0.566E+00  0.215E+00  0.177E+00  0.175E+00
  -1.898  0.498E+00  0.180E+00  0.160E+00  0.158E+00
  -1.798  0.440E+00  0.155E+00  0.143E+00  0.142E+00
  -1.698  0.392E+00  0.141E+00  0.126E+00  0.126E+00
  -1.598  0.348E+00  0.134E+00  0.107E+00  0.108E+00
  -1.498  0.304E+00  0.130E+00  0.863E-01  0.876E-01
  -1.398  0.254E+00  0.120E+00  0.659E-01  0.672E-01
  -1.298  0.195E+00  0.999E-01  0.471E-01  0.481E-01
  -1.198  0.133E+00  0.707E-01  0.311E-01  0.317E-01
  -1.098  0.787E-01  0.415E-01  0.184E-01  0.187E-01
  -0.998  0.390E-01  0.198E-01  0.956E-02  0.970E-02
  -0.898  0.161E-01  0.758E-02  0.421E-02  0.426E-02
  -0.798  0.540E-02  0.233E-02  0.153E-02  0.155E-02
  -0.698  0.147E-02  0.570E-03  0.450E-03  0.455E-03
  -0.598  0.323E-03  0.111E-03  0.106E-03  0.107E-03
  -0.498  0.565E-04  0.173E-04  0.195E-04  0.197E-04
  -0.398  0.781E-05  0.214E-05  0.282E-05  0.285E-05
  -0.298  0.848E-06  0.209E-06  0.318E-06  0.321E-06
  -0.198  0.735E-07  0.165E-07  0.284E-07  0.287E-07
  -0.098  0.339E-07  0.568E-08  0.141E-07  0.141E-07
   0.002  0.420E-06  0.688E-07  0.176E-06  0.175E-06
   0.102  0.467E-05  0.779E-06  0.196E-05  0.194E-05
   0.202  0.404E-04  0.688E-05  0.168E-04  0.167E-04
   0.302  0.272E-03  0.474E-04  0.113E-03  0.112E-03
   0.402  0.143E-02  0.257E-03  0.589E-03  0.584E-03
   0.502  0.592E-02  0.110E-02  0.242E-02  0.240E-02
   0.602  0.195E-01  0.378E-02  0.789E-02  0.783E-02
   0.702  0.516E-01  0.105E-01  0.206E-01  0.205E-01
   0.802  0.111E+00  0.240E-01  0.438E-01  0.435E-01
   0.902  0.200E+00  0.459E-01  0.770E-01  0.767E-01
   1.002  0.304E+00  0.746E-01  0.115E+00  0.114E+00
   1.102  0.401E+00  0.105E+00  0.148E+00  0.148E+00
   1.202  0.475E+00  0.128E+00  0.173E+00  0.173E+00
   1.302  0.525E+00  0.141E+00  0.192E+00  0.192E+00
   1.402  0.567E+00  0.145E+00  0.211E+00  0.211E+00
   1.502  0.617E+00  0.146E+00  0.236E+00  0.235E+00
   1.602  0.670E+00  0.150E+00  0.260E+00  0.260E+00
   1.702  0.704E+00  0.157E+00  0.274E+00  0.274E+00
   1.802  0.696E+00  0.159E+00  0.268E+00  0.268E+00
   1.902  0.639E+00  0.152E+00  0.243E+00  0.244E+00
   2.002  0.541E+00  0.134E+00  0.202E+00  0.205E+00
   2.102  0.416E+00  0.105E+00  0.153E+00  0.157E+00
   2.202  0.281E+00  0.718E-01  0.103E+00  0.107E+00
   2.302  0.163E+00  0.413E-01  0.593E-01  0.626E-01
   2.402  0.791E-01  0.196E-01  0.286E-01  0.309E-01
   2.502  0.315E-01  0.756E-02  0.113E-01  0.126E-01
   2.602  0.102E-01  0.236E-02  0.363E-02  0.421E-02
   2.702  0.267E-02  0.589E-03  0.942E-03  0.114E-02
   2.802  0.563E-03  0.118E-03  0.196E-03  0.250E-03
   2.902  0.953E-04  0.189E-04  0.325E-04  0.439E-04
   3.002  0.129E-04  0.241E-05  0.429E-05  0.617E-05
   3.102  0.138E-05  0.245E-06  0.450E-06  0.688E-06
   3.202  0.117E-06  0.197E-07  0.371E-07  0.605E-07
