# E (eV)   ldos(E)   pdos(E)    pdos(E)    pdos(E)   
 -16.398  0.495E-07  0.443E-07  0.264E-08  0.263E-08
 -16.298  0.446E-06  0.394E-06  0.261E-07  0.261E-07
 -16.198  0.312E-05  0.272E-05  0.202E-06  0.202E-06
 -16.098  0.170E-04  0.145E-04  0.123E-05  0.123E-05
 -15.998  0.725E-04  0.606E-04  0.592E-05  0.591E-05
 -15.898  0.244E-03  0.199E-03  0.227E-04  0.227E-04
 -15.798  0.656E-03  0.515E-03  0.704E-04  0.701E-04
 -15.698  0.143E-02  0.107E-02  0.178E-03  0.177E-03
 -15.598  0.256E-02  0.181E-02  0.376E-03  0.374E-03
 -15.498  0.390E-02  0.255E-02  0.674E-03  0.670E-03
 -15.398  0.518E-02  0.308E-02  0.105E-02  0.105E-02
 -15.298  0.622E-02  0.327E-02  0.148E-02  0.147E-02
 -15.198  0.698E-02  0.316E-02  0.191E-02  0.190E-02
 -15.098  0.755E-02  0.291E-02  0.232E-02  0.232E-02
 -14.998  0.808E-02  0.268E-02  0.270E-02  0.270E-02
 -14.898  0.868E-02  0.258E-02  0.305E-02  0.305E-02
 -14.798  0.939E-02  0.265E-02  0.337E-02  0.337E-02
 -14.698  0.102E-01  0.289E-02  0.367E-02  0.367E-02
 -14.598  0.112E-01  0.331E-02  0.397E-02  0.397E-02
 -14.498  0.125E-01  0.394E-02  0.430E-02  0.430E-02
 -14.398  0.142E-01  0.472E-02  0.471E-02  0.472E-02
 -14.298  0.160E-01  0.549E-02  0.524E-02  0.524E-02
 -14.198  0.178E-01  0.606E-02  0.585E-02  0.586E-02
 -14.098  0.194E-01  0.638E-02  0.651E-02  0.653E-02
 -13.998  0.209E-01  0.657E-02  0.713E-02  0.716E-02
 -13.898  0.223E-01  0.693E-02  0.765E-02  0.768E-02
 -13.798  0.237E-01  0.768E-02  0.798E-02  0.803E-02
 -13.698  0.250E-01  0.881E-02  0.807E-02  0.813E-02
 -13.598  0.257E-01  0.993E-02  0.785E-02  0.791E-02
 -13.498  0.251E-01  0.104E-01  0.729E-02  0.734E-02
 -13.398  0.227E-01  0.987E-02  0.640E-02  0.645E-02
 -13.298  0.189E-01  0.835E-02  0.527E-02  0.531E-02
 -13.198  0.144E-01  0.633E-02  0.400E-02  0.403E-02
 -13.098  0.980E-02  0.432E-02  0.273E-02  0.275E-02
 -12.998  0.591E-02  0.263E-02  0.163E-02  0.165E-02
 -12.898  0.309E-02  0.140E-02  0.838E-03  0.847E-03
 -12.798  0.137E-02  0.642E-03  0.361E-03  0.365E-03
 -12.698  0.503E-03  0.245E-03  0.128E-03  0.130E-03
 -12.598  0.151E-03  0.765E-04  0.370E-04  0.375E-04
 -12.498  0.366E-04  0.193E-04  0.862E-05  0.872E-05
 -12.398  0.710E-05  0.388E-05  0.160E-05  0.162E-05
 -12.298  0.109E-05  0.615E-06  0.236E-06  0.238E-06
 -12.198  0.132E-06  0.766E-07  0.273E-07  0.276E-07
 -12.098  0.124E-07  0.745E-08  0.248E-08  0.250E-08
 -11.998  0.915E-09  0.562E-09  0.175E-09  0.177E-09
 -11.898  0.523E-10  0.329E-10  0.964E-11  0.974E-11
 -11.798  0.231E-11  0.149E-11  0.411E-12  0.415E-12
 -11.698  0.786E-13  0.516E-13  0.134E-13  0.136E-13
 -11.598  0.194E-14  0.132E-14  0.309E-15  0.312E-15
 -11.498  0.000E+00  0.000E+00  0.000E+00  0.000E+00
 -11.398  0.000E+00  0.000E+00  0.000E+00  0.000E+00
 -11.298  0.000E+00  0.000E+00  0.000E+00  0.000E+00
 -11.198  0.000E+00  0.000E+00  0.000E+00  0.000E+00
 -11.098  0.000E+00  0.000E+00  0.000E+00  0.000E+00
 -10.998  0.000E+00  0.000E+00  0.000E+00  0.000E+00
 -10.898  0.000E+00  0.000E+00  0.000E+00  0.000E+00
 -10.798  0.000E+00  0.000E+00  0.000E+00  0.000E+00
 -10.698  0.000E+00  0.000E+00  0.000E+00  0.000E+00
 -10.598  0.000E+00  0.000E+00  0.000E+00  0.000E+00
 -10.498  0.000E+00  0.000E+00  0.000E+00  0.000E+00
 -10.398  0.000E+00  0.000E+00  0.000E+00  0.000E+00
 -10.298  0.000E+00  0.000E+00  0.000E+00  0.000E+00
 -10.198  0.000E+00  0.000E+00  0.000E+00  0.000E+00
 -10.098  0.000E+00  0.000E+00  0.000E+00  0.000E+00
  -9.998  0.000E+00  0.000E+00  0.000E+00  0.000E+00
  -9.898  0.000E+00  0.000E+00  0.000E+00  0.000E+00
  -9.798  0.000E+00  0.000E+00  0.000E+00  0.000E+00
  -9.698  0.000E+00  0.000E+00  0.000E+00  0.000E+00
  -9.598  0.000E+00  0.000E+00  0.000E+00  0.000E+00
  -9.498  0.000E+00  0.000E+00  0.000E+00  0.000E+00
  -9.398  0.000E+00  0.000E+00  0.000E+00  0.000E+00
  -9.298  0.000E+00  0.000E+00  0.000E+00  0.000E+00
  -9.198  0.000E+00  0.000E+00  0.000E+00  0.000E+00
  -9.098  0.000E+00  0.000E+00  0.000E+00  0.000E+00
  -8.998  0.000E+00  0.000E+00  0.000E+00  0.000E+00
  -8.898  0.000E+00  0.000E+00  0.000E+00  0.000E+00
  -8.798  0.000E+00  0.000E+00  0.000E+00  0.000E+00
  -8.698  0.255E-13  0.835E-16  0.127E-13  0.127E-13
  -8.598  0.122E-11  0.421E-14  0.609E-12  0.608E-12
  -8.498  0.403E-10  0.141E-12  0.201E-10  0.201E-10
  -8.398  0.102E-08  0.361E-11  0.508E-09  0.506E-09
  -8.298  0.197E-07  0.710E-10  0.985E-08  0.981E-08
  -8.198  0.294E-06  0.108E-08  0.147E-06  0.146E-06
  -8.098  0.339E-05  0.126E-07  0.169E-05  0.168E-05
  -7.998  0.301E-04  0.115E-06  0.150E-04  0.150E-04
  -7.898  0.207E-03  0.818E-06  0.104E-03  0.103E-03
  -7.798  0.111E-02  0.466E-05  0.554E-03  0.551E-03
  -7.698  0.464E-02  0.221E-04  0.232E-02  0.230E-02
  -7.598  0.153E-01  0.925E-04  0.762E-02  0.758E-02
  -7.498  0.401E-01  0.363E-03  0.199E-01  0.198E-01
  -7.398  0.852E-01  0.135E-02  0.420E-01  0.418E-01
  -7.298  0.150E+00  0.460E-02  0.731E-01  0.728E-01
  -7.198  0.230E+00  0.135E-01  0.109E+00  0.108E+00
  -7.098  0.321E+00  0.336E-01  0.144E+00  0.144E+00
  -6.998  0.430E+00  0.700E-01  0.180E+00  0.180E+00
  -6.898  0.563E+00  0.124E+00  0.220E+00  0.220E+00
  -6.798  0.717E+00  0.189E+00  0.264E+00  0.265E+00
  -6.698  0.865E+00  0.251E+00  0.307E+00  0.308E+00
  -6.598  0.969E+00  0.294E+00  0.337E+00  0.338E+00
  -6.498  0.994E+00  0.302E+00  0.345E+00  0.347E+00
  -6.398  0.931E+00  0.273E+00  0.328E+00  0.330E+00
  -6.298  0.800E+00  0.218E+00  0.291E+00  0.291E+00
  -6.198  0.644E+00  0.161E+00  0.242E+00  0.242E+00
  -6.098  0.505E+00  0.118E+00  0.193E+00  0.194E+00
  -5.998  0.404E+00  0.951E-01  0.154E+00  0.154E+00
  -5.898  0.338E+00  0.844E-01  0.127E+00  0.127E+00
  -5.798  0.301E+00  0.796E-01  0.110E+00  0.111E+00
  -5.698  0.290E+00  0.834E-01  0.103E+00  0.103E+00
  -5.598  0.317E+00  0.106E+00  0.105E+00  0.105E+00
  -5.498  0.389E+00  0.155E+00  0.117E+00  0.117E+00
  -5.398  0.498E+00  0.225E+00  0.136E+00  0.136E+00
  -5.298  0.616E+00  0.295E+00  0.160E+00  0.160E+00
  -5.198  0.702E+00  0.342E+00  0.180E+00  0.180E+00
  -5.098  0.728E+00  0.350E+00  0.189E+00  0.189E+00
  -4.998  0.697E+00  0.324E+00  0.187E+00  0.186E+00
  -4.898  0.651E+00  0.284E+00  0.184E+00  0.183E+00
  -4.798  0.650E+00  0.255E+00  0.198E+00  0.197E+00
  -4.698  0.731E+00  0.250E+00  0.240E+00  0.240E+00
  -4.598  0.873E+00  0.266E+00  0.303E+00  0.303E+00
  -4.498  0.998E+00  0.284E+00  0.358E+00  0.357E+00
  -4.398  0.103E+01  0.283E+00  0.372E+00  0.371E+00
  -4.298  0.939E+00  0.260E+00  0.340E+00  0.339E+00
  -4.198  0.784E+00  0.223E+00  0.281E+00  0.279E+00
  -4.098  0.630E+00  0.185E+00  0.223E+00  0.222E+00
  -3.998  0.517E+00  0.155E+00  0.182E+00  0.180E+00
  -3.898  0.452E+00  0.135E+00  0.159E+00  0.158E+00
  -3.798  0.427E+00  0.127E+00  0.150E+00  0.149E+00
  -3.698  0.431E+00  0.130E+00  0.151E+00  0.150E+00
  -3.598  0.453E+00  0.141E+00  0.156E+00  0.156E+00
  -3.498  0.492E+00  0.159E+00  0.166E+00  0.166E+00
  -3.398  0.559E+00  0.191E+00  0.184E+00  0.184E+00
  -3.298  0.662E+00  0.241E+00  0.210E+00  0.211E+00
  -3.198  0.786E+00  0.307E+00  0.239E+00  0.240E+00
  -3.098  0.893E+00  0.370E+00  0.261E+00  0.262E+00
  -2.998  0.945E+00  0.405E+00  0.269E+00  0.270E+00
  -2.898  0.927E+00  0.402E+00  0.262E+00  0.263E+00
  -2.798  0.861E+00  0.371E+00  0.245E+00  0.245E+00
  -2.698  0.787E+00  0.334E+00  0.226E+00  0.227E+00
  -2.598  0.735E+00  0.309E+00  0.213E+00  0.213E+00
  -2.498  0.712E+00  0.300E+00  0.206E+00  0.206E+00
  -2.398  0.709E+00  0.299E+00  0.205E+00  0.205E+00
  -2.298  0.706E+00  0.294E+00  0.206E+00  0.206E+00
  -2.198  0.680E+00  0.275E+00  0.202E+00  0.202E+00
  -2.098  0.626E+00  0.242E+00  0.192E+00  0.192E+00
  -1.998  0.556E+00  0.204E+00  0.176E+00  0.176E+00
  -1.898  0.490E+00  0.171E+00  0.160E+00  0.159E+00
  -1.798  0.435E+00  0.149E+00  0.143E+00  0.143E+00
  -1.698  0.390E+00  0.138E+00  0.126E+00  0.126E+00
  -1.598  0.349E+00  0.136E+00  0.107E+00  0.107E+00
  -1.498  0.307E+00  0.134E+00  0.868E-01  0.865E-01
  -1.398  0.258E+00  0.125E+00  0.664E-01  0.661E-01
  -1.298  0.200E+00  0.105E+00  0.475E-01  0.473E-01
  -1.198  0.138E+00  0.751E-01  0.313E-01  0.312E-01
  -1.098  0.815E-01  0.445E-01  0.185E-01  0.185E-01
  -0.998  0.407E-01  0.215E-01  0.960E-02  0.961E-02
  -0.898  0.168E-01  0.833E-02  0.422E-02  0.423E-02
  -0.798  0.567E-02  0.259E-02  0.153E-02  0.154E-02
  -0.698  0.155E-02  0.646E-03  0.451E-03  0.453E-03
  -0.598  0.340E-03  0.128E-03  0.106E-03  0.106E-03
  -0.498  0.595E-04  0.204E-04  0.196E-04  0.196E-04
  -0.398  0.824E-05  0.257E-05  0.283E-05  0.284E-05
  -0.298  0.896E-06  0.258E-06  0.318E-06  0.320E-06
  -0.198  0.778E-07  0.208E-07  0.284E-07  0.286E-07
  -0.098  0.342E-07  0.603E-08  0.141E-07  0.141E-07
   0.002  0.420E-06  0.696E-07  0.175E-06  0.175E-06
   0.102  0.468E-05  0.790E-06  0.194E-05  0.195E-05
   0.202  0.405E-04  0.699E-05  0.167E-04  0.167E-04
   0.302  0.272E-03  0.483E-04  0.112E-03  0.112E-03
   0.402  0.143E-02  0.263E-03  0.585E-03  0.585E-03
   0.502  0.594E-02  0.113E-02  0.241E-02  0.241E-02
   0.602  0.196E-01  0.390E-02  0.785E-02  0.784E-02
   0.702  0.519E-01  0.109E-01  0.205E-01  0.205E-01
   0.802  0.112E+00  0.249E-01  0.436E-01  0.435E-01
   0.902  0.201E+00  0.478E-01  0.767E-01  0.766E-01
   1.002  0.306E+00  0.776E-01  0.114E+00  0.114E+00
   1.102  0.405E+00  0.108E+00  0.148E+00  0.148E+00
   1.202  0.479E+00  0.132E+00  0.174E+00  0.173E+00
   1.302  0.529E+00  0.144E+00  0.192E+00  0.192E+00
   1.402  0.570E+00  0.146E+00  0.212E+00  0.211E+00
   1.502  0.617E+00  0.146E+00  0.236E+00  0.235E+00
   1.602  0.668E+00  0.148E+00  0.260E+00  0.260E+00
   1.702  0.701E+00  0.154E+00  0.273E+00  0.274E+00
   1.802  0.692E+00  0.156E+00  0.267E+00  0.269E+00
   1.902  0.636E+00  0.149E+00  0.242E+00  0.245E+00
   2.002  0.540E+00  0.131E+00  0.202E+00  0.207E+00
   2.102  0.416E+00  0.104E+00  0.153E+00  0.159E+00
   2.202  0.282E+00  0.714E-01  0.103E+00  0.108E+00
   2.302  0.164E+00  0.415E-01  0.593E-01  0.636E-01
   2.402  0.799E-01  0.199E-01  0.286E-01  0.314E-01
   2.502  0.319E-01  0.777E-02  0.113E-01  0.128E-01
   2.602  0.104E-01  0.244E-02  0.364E-02  0.428E-02
   2.702  0.271E-02  0.614E-03  0.943E-03  0.116E-02
   2.802  0.572E-03  0.123E-03  0.196E-03  0.253E-03
   2.902  0.966E-04  0.197E-04  0.325E-04  0.444E-04
   3.002  0.130E-04  0.251E-05  0.429E-05  0.623E-05
   3.102  0.140E-05  0.253E-06  0.449E-06  0.694E-06
   3.202  0.118E-06  0.202E-07  0.370E-07  0.610E-07
