# E (eV)   ldos(E)   pdos(E)   
 -16.398  0.142E-05  0.142E-05
 -16.298  0.126E-04  0.126E-04
 -16.198  0.872E-04  0.872E-04
 -16.098  0.468E-03  0.468E-03
 -15.998  0.196E-02  0.196E-02
 -15.898  0.646E-02  0.646E-02
 -15.798  0.169E-01  0.169E-01
 -15.698  0.355E-01  0.355E-01
 -15.598  0.610E-01  0.610E-01
 -15.498  0.882E-01  0.882E-01
 -15.398  0.111E+00  0.111E+00
 -15.298  0.126E+00  0.126E+00
 -15.198  0.136E+00  0.136E+00
 -15.098  0.142E+00  0.142E+00
 -14.998  0.147E+00  0.147E+00
 -14.898  0.153E+00  0.153E+00
 -14.798  0.160E+00  0.160E+00
 -14.698  0.172E+00  0.172E+00
 -14.598  0.195E+00  0.195E+00
 -14.498  0.232E+00  0.232E+00
 -14.398  0.286E+00  0.286E+00
 -14.298  0.351E+00  0.351E+00
 -14.198  0.417E+00  0.417E+00
 -14.098  0.480E+00  0.480E+00
 -13.998  0.542E+00  0.542E+00
 -13.898  0.612E+00  0.612E+00
 -13.798  0.698E+00  0.698E+00
 -13.698  0.797E+00  0.797E+00
 -13.598  0.899E+00  0.899E+00
 -13.498  0.980E+00  0.980E+00
 -13.398  0.102E+01  0.102E+01
 -13.298  0.101E+01  0.101E+01
 -13.198  0.926E+00  0.926E+00
 -13.098  0.766E+00  0.766E+00
 -12.998  0.554E+00  0.554E+00
 -12.898  0.342E+00  0.342E+00
 -12.798  0.175E+00  0.175E+00
 -12.698  0.736E-01  0.736E-01
 -12.598  0.249E-01  0.249E-01
 -12.498  0.670E-02  0.670E-02
 -12.398  0.142E-02  0.142E-02
 -12.298  0.237E-03  0.237E-03
 -12.198  0.307E-04  0.307E-04
 -12.098  0.310E-05  0.310E-05
 -11.998  0.241E-06  0.241E-06
 -11.898  0.145E-07  0.145E-07
 -11.798  0.672E-09  0.672E-09
 -11.698  0.239E-10  0.239E-10
 -11.598  0.637E-12  0.637E-12
 -11.498  0.000E+00  0.000E+00
 -11.398  0.000E+00  0.000E+00
 -11.298  0.000E+00  0.000E+00
 -11.198  0.000E+00  0.000E+00
 -11.098  0.000E+00  0.000E+00
 -10.998  0.000E+00  0.000E+00
 -10.898  0.000E+00  0.000E+00
 -10.798  0.000E+00  0.000E+00
 -10.698  0.000E+00  0.000E+00
 -10.598  0.000E+00  0.000E+00
 -10.498  0.000E+00  0.000E+00
 -10.398  0.000E+00  0.000E+00
 -10.298  0.000E+00  0.000E+00
 -10.198  0.000E+00  0.000E+00
 -10.098  0.000E+00  0.000E+00
  -9.998  0.000E+00  0.000E+00
  -9.898  0.000E+00  0.000E+00
  -9.798  0.000E+00  0.000E+00
  -9.698  0.000E+00  0.000E+00
  -9.598  0.000E+00  0.000E+00
  -9.498  0.000E+00  0.000E+00
  -9.398  0.000E+00  0.000E+00
  -9.298  0.000E+00  0.000E+00
  -9.198  0.000E+00  0.000E+00
  -9.098  0.000E+00  0.000E+00
  -8.998  0.000E+00  0.000E+00
  -8.898  0.000E+00  0.000E+00
  -8.798  0.000E+00  0.000E+00
  -8.698  0.408E-15  0.408E-15
  -8.598  0.195E-13  0.195E-13
  -8.498  0.645E-12  0.645E-12
  -8.398  0.163E-10  0.163E-10
  -8.298  0.317E-09  0.317E-09
  -8.198  0.473E-08  0.473E-08
  -8.098  0.546E-07  0.546E-07
  -7.998  0.487E-06  0.487E-06
  -7.898  0.338E-05  0.338E-05
  -7.798  0.183E-04  0.183E-04
  -7.698  0.777E-04  0.777E-04
  -7.598  0.264E-03  0.264E-03
  -7.498  0.726E-03  0.726E-03
  -7.398  0.166E-02  0.166E-02
  -7.298  0.324E-02  0.324E-02
  -7.198  0.554E-02  0.554E-02
  -7.098  0.846E-02  0.846E-02
  -6.998  0.117E-01  0.117E-01
  -6.898  0.149E-01  0.149E-01
  -6.798  0.180E-01  0.180E-01
  -6.698  0.209E-01  0.209E-01
  -6.598  0.237E-01  0.237E-01
  -6.498  0.257E-01  0.257E-01
  -6.398  0.260E-01  0.260E-01
  -6.298  0.241E-01  0.241E-01
  -6.198  0.205E-01  0.205E-01
  -6.098  0.167E-01  0.167E-01
  -5.998  0.135E-01  0.135E-01
  -5.898  0.115E-01  0.115E-01
  -5.798  0.114E-01  0.114E-01
  -5.698  0.147E-01  0.147E-01
  -5.598  0.243E-01  0.243E-01
  -5.498  0.427E-01  0.427E-01
  -5.398  0.694E-01  0.694E-01
  -5.298  0.989E-01  0.989E-01
  -5.198  0.122E+00  0.122E+00
  -5.098  0.131E+00  0.131E+00
  -4.998  0.124E+00  0.124E+00
  -4.898  0.104E+00  0.104E+00
  -4.798  0.819E-01  0.819E-01
  -4.698  0.623E-01  0.623E-01
  -4.598  0.482E-01  0.482E-01
  -4.498  0.384E-01  0.384E-01
  -4.398  0.308E-01  0.308E-01
  -4.298  0.242E-01  0.242E-01
  -4.198  0.190E-01  0.190E-01
  -4.098  0.152E-01  0.152E-01
  -3.998  0.127E-01  0.127E-01
  -3.898  0.109E-01  0.109E-01
  -3.798  0.984E-02  0.984E-02
  -3.698  0.974E-02  0.974E-02
  -3.598  0.109E-01  0.109E-01
  -3.498  0.146E-01  0.146E-01
  -3.398  0.225E-01  0.225E-01
  -3.298  0.351E-01  0.351E-01
  -3.198  0.502E-01  0.502E-01
  -3.098  0.628E-01  0.628E-01
  -2.998  0.683E-01  0.683E-01
  -2.898  0.654E-01  0.654E-01
  -2.798  0.570E-01  0.570E-01
  -2.698  0.473E-01  0.473E-01
  -2.598  0.390E-01  0.390E-01
  -2.498  0.330E-01  0.330E-01
  -2.398  0.289E-01  0.289E-01
  -2.298  0.265E-01  0.265E-01
  -2.198  0.253E-01  0.253E-01
  -2.098  0.250E-01  0.250E-01
  -1.998  0.248E-01  0.248E-01
  -1.898  0.236E-01  0.236E-01
  -1.798  0.212E-01  0.212E-01
  -1.698  0.179E-01  0.179E-01
  -1.598  0.145E-01  0.145E-01
  -1.498  0.115E-01  0.115E-01
  -1.398  0.890E-02  0.890E-02
  -1.298  0.643E-02  0.643E-02
  -1.198  0.413E-02  0.413E-02
  -1.098  0.225E-02  0.225E-02
  -0.998  0.101E-02  0.101E-02
  -0.898  0.366E-03  0.366E-03
  -0.798  0.105E-03  0.105E-03
  -0.698  0.235E-04  0.235E-04
  -0.598  0.411E-05  0.411E-05
  -0.498  0.557E-06  0.557E-06
  -0.398  0.585E-07  0.585E-07
  -0.298  0.474E-08  0.474E-08
  -0.198  0.342E-09  0.342E-09
  -0.098  0.910E-09  0.910E-09
   0.002  0.131E-07  0.131E-07
   0.102  0.148E-06  0.148E-06
   0.202  0.130E-05  0.130E-05
   0.302  0.883E-05  0.883E-05
   0.402  0.468E-04  0.468E-04
   0.502  0.195E-03  0.195E-03
   0.602  0.644E-03  0.644E-03
   0.702  0.170E-02  0.170E-02
   0.802  0.363E-02  0.363E-02
   0.902  0.636E-02  0.636E-02
   1.002  0.931E-02  0.931E-02
   1.102  0.116E-01  0.116E-01
   1.202  0.130E-01  0.130E-01
   1.302  0.143E-01  0.143E-01
   1.402  0.178E-01  0.178E-01
   1.502  0.255E-01  0.255E-01
   1.602  0.369E-01  0.369E-01
   1.702  0.482E-01  0.482E-01
   1.802  0.542E-01  0.542E-01
   1.902  0.522E-01  0.522E-01
   2.002  0.435E-01  0.435E-01
   2.102  0.314E-01  0.314E-01
   2.202  0.195E-01  0.195E-01
   2.302  0.101E-01  0.101E-01
   2.402  0.432E-02  0.432E-02
   2.502  0.148E-02  0.148E-02
   2.602  0.404E-03  0.404E-03
   2.702  0.866E-04  0.866E-04
   2.802  0.146E-04  0.146E-04
   2.902  0.192E-05  0.192E-05
   3.002  0.199E-06  0.199E-06
   3.102  0.162E-07  0.162E-07
   3.202  0.104E-08  0.104E-08
