# E (eV)   ldos(E)   pdos(E)    pdos(E)    pdos(E)   
 -16.398  0.742E-07  0.160E-11  0.371E-07  0.371E-07
 -16.298  0.736E-06  0.414E-10  0.368E-06  0.368E-06
 -16.198  0.571E-05  0.824E-09  0.285E-05  0.285E-05
 -16.098  0.348E-04  0.127E-07  0.174E-04  0.174E-04
 -15.998  0.168E-03  0.150E-06  0.840E-04  0.840E-04
 -15.898  0.648E-03  0.138E-05  0.323E-03  0.323E-03
 -15.798  0.202E-02  0.986E-05  0.100E-02  0.100E-02
 -15.698  0.515E-02  0.548E-04  0.255E-02  0.255E-02
 -15.598  0.110E-01  0.238E-03  0.539E-02  0.539E-02
 -15.498  0.202E-01  0.814E-03  0.970E-02  0.970E-02
 -15.398  0.326E-01  0.220E-02  0.152E-01  0.152E-01
 -15.298  0.476E-01  0.472E-02  0.214E-01  0.214E-01
 -15.198  0.636E-01  0.812E-02  0.277E-01  0.278E-01
 -15.098  0.790E-01  0.113E-01  0.338E-01  0.339E-01
 -14.998  0.922E-01  0.130E-01  0.396E-01  0.396E-01
 -14.898  0.103E+00  0.128E-01  0.449E-01  0.450E-01
 -14.798  0.112E+00  0.123E-01  0.500E-01  0.501E-01
 -14.698  0.125E+00  0.151E-01  0.549E-01  0.549E-01
 -14.598  0.145E+00  0.260E-01  0.595E-01  0.596E-01
 -14.498  0.178E+00  0.493E-01  0.642E-01  0.643E-01
 -14.398  0.222E+00  0.837E-01  0.689E-01  0.691E-01
 -14.298  0.269E+00  0.121E+00  0.739E-01  0.741E-01
 -14.198  0.308E+00  0.149E+00  0.794E-01  0.797E-01
 -14.098  0.337E+00  0.165E+00  0.860E-01  0.863E-01
 -13.998  0.362E+00  0.173E+00  0.943E-01  0.947E-01
 -13.898  0.391E+00  0.180E+00  0.105E+00  0.106E+00
 -13.798  0.424E+00  0.184E+00  0.120E+00  0.120E+00
 -13.698  0.454E+00  0.183E+00  0.135E+00  0.135E+00
 -13.598  0.469E+00  0.178E+00  0.146E+00  0.146E+00
 -13.498  0.457E+00  0.168E+00  0.145E+00  0.144E+00
 -13.398  0.410E+00  0.156E+00  0.128E+00  0.127E+00
 -13.298  0.330E+00  0.136E+00  0.978E-01  0.967E-01
 -13.198  0.234E+00  0.107E+00  0.637E-01  0.629E-01
 -13.098  0.142E+00  0.730E-01  0.347E-01  0.342E-01
 -12.998  0.728E-01  0.420E-01  0.155E-01  0.153E-01
 -12.898  0.312E-01  0.200E-01  0.563E-02  0.556E-02
 -12.798  0.110E-01  0.779E-02  0.163E-02  0.161E-02
 -12.698  0.322E-02  0.247E-02  0.373E-03  0.369E-03
 -12.598  0.773E-03  0.639E-03  0.670E-04  0.663E-04
 -12.498  0.153E-03  0.134E-03  0.937E-05  0.929E-05
 -12.398  0.247E-04  0.227E-04  0.102E-05  0.101E-05
 -12.298  0.327E-05  0.310E-05  0.856E-07  0.849E-07
 -12.198  0.349E-06  0.338E-06  0.556E-08  0.551E-08
 -12.098  0.298E-07  0.293E-07  0.278E-09  0.275E-09
 -11.998  0.202E-08  0.200E-08  0.107E-10  0.106E-10
 -11.898  0.108E-09  0.107E-09  0.311E-12  0.309E-12
 -11.798  0.450E-11  0.449E-11  0.480E-14  0.477E-14
 -11.698  0.143E-12  0.143E-12  0.290E-19  0.365E-19
 -11.598  0.334E-14  0.334E-14  0.784E-21  0.985E-21
 -11.498  0.000E+00  0.000E+00  0.000E+00  0.000E+00
 -11.398  0.000E+00  0.000E+00  0.000E+00  0.000E+00
 -11.298  0.000E+00  0.000E+00  0.000E+00  0.000E+00
 -11.198  0.000E+00  0.000E+00  0.000E+00  0.000E+00
 -11.098  0.000E+00  0.000E+00  0.000E+00  0.000E+00
 -10.998  0.000E+00  0.000E+00  0.000E+00  0.000E+00
 -10.898  0.000E+00  0.000E+00  0.000E+00  0.000E+00
 -10.798  0.000E+00  0.000E+00  0.000E+00  0.000E+00
 -10.698  0.000E+00  0.000E+00  0.000E+00  0.000E+00
 -10.598  0.000E+00  0.000E+00  0.000E+00  0.000E+00
 -10.498  0.000E+00  0.000E+00  0.000E+00  0.000E+00
 -10.398  0.000E+00  0.000E+00  0.000E+00  0.000E+00
 -10.298  0.000E+00  0.000E+00  0.000E+00  0.000E+00
 -10.198  0.000E+00  0.000E+00  0.000E+00  0.000E+00
 -10.098  0.000E+00  0.000E+00  0.000E+00  0.000E+00
  -9.998  0.000E+00  0.000E+00  0.000E+00  0.000E+00
  -9.898  0.000E+00  0.000E+00  0.000E+00  0.000E+00
  -9.798  0.000E+00  0.000E+00  0.000E+00  0.000E+00
  -9.698  0.000E+00  0.000E+00  0.000E+00  0.000E+00
  -9.598  0.000E+00  0.000E+00  0.000E+00  0.000E+00
  -9.498  0.000E+00  0.000E+00  0.000E+00  0.000E+00
  -9.398  0.000E+00  0.000E+00  0.000E+00  0.000E+00
  -9.298  0.000E+00  0.000E+00  0.000E+00  0.000E+00
  -9.198  0.000E+00  0.000E+00  0.000E+00  0.000E+00
  -9.098  0.000E+00  0.000E+00  0.000E+00  0.000E+00
  -8.998  0.000E+00  0.000E+00  0.000E+00  0.000E+00
  -8.898  0.000E+00  0.000E+00  0.000E+00  0.000E+00
  -8.798  0.000E+00  0.000E+00  0.000E+00  0.000E+00
  -8.698  0.783E-14  0.187E-14  0.298E-14  0.298E-14
  -8.598  0.371E-12  0.870E-13  0.142E-12  0.142E-12
  -8.498  0.122E-10  0.284E-11  0.469E-11  0.469E-11
  -8.398  0.307E-09  0.712E-10  0.118E-09  0.118E-09
  -8.298  0.594E-08  0.137E-08  0.229E-08  0.229E-08
  -8.198  0.883E-07  0.201E-07  0.341E-07  0.341E-07
  -8.098  0.101E-05  0.228E-06  0.392E-06  0.391E-06
  -7.998  0.893E-05  0.198E-05  0.348E-05  0.347E-05
  -7.898  0.610E-04  0.133E-04  0.239E-04  0.238E-04
  -7.798  0.323E-03  0.687E-04  0.127E-03  0.127E-03
  -7.698  0.133E-02  0.274E-03  0.530E-03  0.529E-03
  -7.598  0.431E-02  0.846E-03  0.173E-02  0.173E-02
  -7.498  0.110E-01  0.203E-02  0.449E-02  0.448E-02
  -7.398  0.225E-01  0.380E-02  0.935E-02  0.933E-02
  -7.298  0.375E-01  0.565E-02  0.159E-01  0.159E-01
  -7.198  0.526E-01  0.690E-02  0.229E-01  0.228E-01
  -7.098  0.648E-01  0.761E-02  0.286E-01  0.286E-01
  -6.998  0.743E-01  0.894E-02  0.327E-01  0.327E-01
  -6.898  0.833E-01  0.124E-01  0.355E-01  0.355E-01
  -6.798  0.930E-01  0.184E-01  0.373E-01  0.374E-01
  -6.698  0.102E+00  0.264E-01  0.376E-01  0.377E-01
  -6.598  0.106E+00  0.351E-01  0.354E-01  0.354E-01
  -6.498  0.104E+00  0.432E-01  0.302E-01  0.302E-01
  -6.398  0.947E-01  0.489E-01  0.229E-01  0.229E-01
  -6.298  0.814E-01  0.507E-01  0.154E-01  0.154E-01
  -6.198  0.662E-01  0.478E-01  0.921E-02  0.918E-02
  -6.098  0.513E-01  0.414E-01  0.500E-02  0.498E-02
  -5.998  0.387E-01  0.336E-01  0.260E-02  0.259E-02
  -5.898  0.298E-01  0.265E-01  0.167E-02  0.166E-02
  -5.798  0.259E-01  0.218E-01  0.205E-02  0.202E-02
  -5.698  0.280E-01  0.202E-01  0.395E-02  0.389E-02
  -5.598  0.371E-01  0.213E-01  0.794E-02  0.783E-02
  -5.498  0.536E-01  0.242E-01  0.148E-01  0.146E-01
  -5.398  0.772E-01  0.280E-01  0.247E-01  0.245E-01
  -5.298  0.104E+00  0.320E-01  0.360E-01  0.359E-01
  -5.198  0.125E+00  0.349E-01  0.452E-01  0.452E-01
  -5.098  0.133E+00  0.359E-01  0.486E-01  0.487E-01
  -4.998  0.125E+00  0.352E-01  0.446E-01  0.448E-01
  -4.898  0.107E+00  0.352E-01  0.358E-01  0.360E-01
  -4.798  0.915E-01  0.387E-01  0.263E-01  0.264E-01
  -4.698  0.859E-01  0.472E-01  0.193E-01  0.194E-01
  -4.598  0.888E-01  0.577E-01  0.155E-01  0.156E-01
  -4.498  0.925E-01  0.643E-01  0.141E-01  0.142E-01
  -4.398  0.892E-01  0.618E-01  0.137E-01  0.138E-01
  -4.298  0.773E-01  0.499E-01  0.137E-01  0.137E-01
  -4.198  0.619E-01  0.340E-01  0.139E-01  0.140E-01
  -4.098  0.495E-01  0.206E-01  0.144E-01  0.145E-01
  -3.998  0.428E-01  0.129E-01  0.149E-01  0.150E-01
  -3.898  0.411E-01  0.105E-01  0.153E-01  0.154E-01
  -3.798  0.430E-01  0.110E-01  0.159E-01  0.161E-01
  -3.698  0.464E-01  0.122E-01  0.171E-01  0.172E-01
  -3.598  0.498E-01  0.132E-01  0.182E-01  0.183E-01
  -3.498  0.529E-01  0.140E-01  0.194E-01  0.195E-01
  -3.398  0.576E-01  0.153E-01  0.211E-01  0.212E-01
  -3.298  0.641E-01  0.176E-01  0.233E-01  0.233E-01
  -3.198  0.704E-01  0.207E-01  0.249E-01  0.249E-01
  -3.098  0.742E-01  0.235E-01  0.254E-01  0.254E-01
  -2.998  0.744E-01  0.247E-01  0.248E-01  0.248E-01
  -2.898  0.710E-01  0.240E-01  0.235E-01  0.235E-01
  -2.798  0.656E-01  0.222E-01  0.217E-01  0.217E-01
  -2.698  0.604E-01  0.204E-01  0.200E-01  0.200E-01
  -2.598  0.571E-01  0.195E-01  0.188E-01  0.188E-01
  -2.498  0.558E-01  0.194E-01  0.182E-01  0.182E-01
  -2.398  0.564E-01  0.196E-01  0.184E-01  0.184E-01
  -2.298  0.589E-01  0.196E-01  0.196E-01  0.197E-01
  -2.198  0.626E-01  0.189E-01  0.218E-01  0.219E-01
  -2.098  0.659E-01  0.171E-01  0.244E-01  0.244E-01
  -1.998  0.672E-01  0.144E-01  0.264E-01  0.264E-01
  -1.898  0.657E-01  0.114E-01  0.272E-01  0.272E-01
  -1.798  0.614E-01  0.919E-02  0.261E-01  0.261E-01
  -1.698  0.547E-01  0.824E-02  0.232E-01  0.232E-01
  -1.598  0.461E-01  0.824E-02  0.189E-01  0.190E-01
  -1.498  0.365E-01  0.833E-02  0.140E-01  0.141E-01
  -1.398  0.268E-01  0.778E-02  0.943E-02  0.955E-02
  -1.298  0.180E-01  0.643E-02  0.575E-02  0.585E-02
  -1.198  0.111E-01  0.462E-02  0.319E-02  0.325E-02
  -1.098  0.613E-02  0.286E-02  0.162E-02  0.165E-02
  -0.998  0.300E-02  0.151E-02  0.739E-03  0.752E-03
  -0.898  0.126E-02  0.664E-03  0.297E-03  0.301E-03
  -0.798  0.444E-03  0.240E-03  0.101E-03  0.103E-03
  -0.698  0.128E-03  0.706E-04  0.286E-04  0.289E-04
  -0.598  0.297E-04  0.166E-04  0.652E-05  0.659E-05
  -0.498  0.547E-05  0.309E-05  0.118E-05  0.120E-05
  -0.398  0.792E-06  0.453E-06  0.169E-06  0.171E-06
  -0.298  0.897E-07  0.518E-07  0.189E-07  0.190E-07
  -0.198  0.799E-08  0.462E-08  0.168E-08  0.169E-08
  -0.098  0.251E-08  0.527E-09  0.100E-08  0.987E-09
   0.002  0.286E-07  0.284E-08  0.130E-07  0.128E-07
   0.102  0.320E-06  0.295E-07  0.146E-06  0.144E-06
   0.202  0.277E-05  0.240E-06  0.127E-05  0.125E-05
   0.302  0.186E-04  0.154E-05  0.861E-05  0.845E-05
   0.402  0.975E-04  0.783E-05  0.452E-04  0.444E-04
   0.502  0.401E-03  0.324E-04  0.186E-03  0.183E-03
   0.602  0.131E-02  0.111E-03  0.604E-03  0.593E-03
   0.702  0.342E-02  0.322E-03  0.156E-02  0.154E-02
   0.802  0.730E-02  0.796E-03  0.328E-02  0.322E-02
   0.902  0.130E-01  0.168E-02  0.568E-02  0.559E-02
   1.002  0.196E-01  0.304E-02  0.834E-02  0.824E-02
   1.102  0.259E-01  0.466E-02  0.107E-01  0.106E-01
   1.202  0.307E-01  0.617E-02  0.123E-01  0.122E-01
   1.302  0.330E-01  0.726E-02  0.129E-01  0.129E-01
   1.402  0.331E-01  0.789E-02  0.126E-01  0.127E-01
   1.502  0.316E-01  0.825E-02  0.116E-01  0.117E-01
   1.602  0.294E-01  0.843E-02  0.104E-01  0.105E-01
   1.702  0.276E-01  0.837E-02  0.956E-02  0.965E-02
   1.802  0.265E-01  0.798E-02  0.920E-02  0.931E-02
   1.902  0.254E-01  0.719E-02  0.904E-02  0.919E-02
   2.002  0.230E-01  0.599E-02  0.841E-02  0.861E-02
   2.102  0.185E-01  0.446E-02  0.689E-02  0.711E-02
   2.202  0.125E-01  0.285E-02  0.473E-02  0.493E-02
   2.302  0.697E-02  0.151E-02  0.266E-02  0.280E-02
   2.402  0.314E-02  0.646E-03  0.121E-02  0.129E-02
   2.502  0.114E-02  0.220E-03  0.439E-03  0.478E-03
   2.602  0.329E-03  0.592E-04  0.128E-03  0.143E-03
   2.702  0.765E-04  0.124E-04  0.297E-04  0.343E-04
   2.802  0.143E-04  0.204E-05  0.555E-05  0.669E-05
   2.902  0.215E-05  0.259E-06  0.833E-06  0.106E-05
   3.002  0.261E-06  0.255E-07  0.101E-06  0.135E-06
   3.102  0.257E-07  0.195E-08  0.974E-08  0.140E-07
   3.202  0.203E-08  0.115E-09  0.754E-09  0.116E-08
