# E (eV)   ldos(E)   pdos(E)    pdos(E)    pdos(E)   
 -16.398  0.497E-07  0.444E-07  0.264E-08  0.263E-08
 -16.298  0.448E-06  0.396E-06  0.261E-07  0.260E-07
 -16.198  0.313E-05  0.273E-05  0.202E-06  0.202E-06
 -16.098  0.170E-04  0.146E-04  0.123E-05  0.123E-05
 -15.998  0.727E-04  0.609E-04  0.592E-05  0.590E-05
 -15.898  0.245E-03  0.199E-03  0.227E-04  0.226E-04
 -15.798  0.658E-03  0.517E-03  0.703E-04  0.700E-04
 -15.698  0.143E-02  0.108E-02  0.178E-03  0.177E-03
 -15.598  0.257E-02  0.182E-02  0.375E-03  0.373E-03
 -15.498  0.392E-02  0.258E-02  0.673E-03  0.669E-03
 -15.398  0.522E-02  0.312E-02  0.105E-02  0.105E-02
 -15.298  0.629E-02  0.334E-02  0.148E-02  0.147E-02
 -15.198  0.710E-02  0.329E-02  0.191E-02  0.190E-02
 -15.098  0.771E-02  0.307E-02  0.232E-02  0.232E-02
 -14.998  0.825E-02  0.285E-02  0.271E-02  0.270E-02
 -14.898  0.884E-02  0.273E-02  0.306E-02  0.305E-02
 -14.798  0.954E-02  0.279E-02  0.337E-02  0.337E-02
 -14.698  0.104E-01  0.304E-02  0.367E-02  0.367E-02
 -14.598  0.114E-01  0.346E-02  0.397E-02  0.396E-02
 -14.498  0.127E-01  0.406E-02  0.430E-02  0.429E-02
 -14.398  0.142E-01  0.479E-02  0.472E-02  0.471E-02
 -14.298  0.160E-01  0.551E-02  0.524E-02  0.523E-02
 -14.198  0.178E-01  0.607E-02  0.586E-02  0.584E-02
 -14.098  0.194E-01  0.642E-02  0.651E-02  0.650E-02
 -13.998  0.209E-01  0.666E-02  0.714E-02  0.713E-02
 -13.898  0.223E-01  0.704E-02  0.765E-02  0.765E-02
 -13.798  0.238E-01  0.782E-02  0.799E-02  0.799E-02
 -13.698  0.252E-01  0.899E-02  0.808E-02  0.809E-02
 -13.598  0.258E-01  0.101E-01  0.787E-02  0.787E-02
 -13.498  0.251E-01  0.105E-01  0.731E-02  0.732E-02
 -13.398  0.227E-01  0.987E-02  0.643E-02  0.643E-02
 -13.298  0.189E-01  0.831E-02  0.530E-02  0.530E-02
 -13.198  0.144E-01  0.633E-02  0.403E-02  0.401E-02
 -13.098  0.987E-02  0.438E-02  0.275E-02  0.273E-02
 -12.998  0.602E-02  0.273E-02  0.165E-02  0.163E-02
 -12.898  0.318E-02  0.150E-02  0.849E-03  0.835E-03
 -12.798  0.143E-02  0.705E-03  0.366E-03  0.359E-03
 -12.698  0.534E-03  0.277E-03  0.130E-03  0.127E-03
 -12.598  0.163E-03  0.890E-04  0.376E-04  0.367E-04
 -12.498  0.403E-04  0.231E-04  0.875E-05  0.853E-05
 -12.398  0.797E-05  0.476E-05  0.163E-05  0.158E-05
 -12.298  0.125E-05  0.775E-06  0.239E-06  0.233E-06
 -12.198  0.153E-06  0.988E-07  0.277E-07  0.270E-07
 -12.098  0.148E-07  0.983E-08  0.251E-08  0.245E-08
 -11.998  0.111E-08  0.760E-09  0.178E-09  0.173E-09
 -11.898  0.647E-10  0.454E-10  0.977E-11  0.953E-11
 -11.798  0.292E-11  0.210E-11  0.417E-12  0.407E-12
 -11.698  0.101E-12  0.743E-13  0.136E-13  0.133E-13
 -11.598  0.259E-14  0.197E-14  0.313E-15  0.306E-15
 -11.498  0.000E+00  0.000E+00  0.000E+00  0.000E+00
 -11.398  0.000E+00  0.000E+00  0.000E+00  0.000E+00
 -11.298  0.000E+00  0.000E+00  0.000E+00  0.000E+00
 -11.198  0.000E+00  0.000E+00  0.000E+00  0.000E+00
 -11.098  0.000E+00  0.000E+00  0.000E+00  0.000E+00
 -10.998  0.000E+00  0.000E+00  0.000E+00  0.000E+00
 -10.898  0.000E+00  0.000E+00  0.000E+00  0.000E+00
 -10.798  0.000E+00  0.000E+00  0.000E+00  0.000E+00
 -10.698  0.000E+00  0.000E+00  0.000E+00  0.000E+00
 -10.598  0.000E+00  0.000E+00  0.000E+00  0.000E+00
 -10.498  0.000E+00  0.000E+00  0.000E+00  0.000E+00
 -10.398  0.000E+00  0.000E+00  0.000E+00  0.000E+00
 -10.298  0.000E+00  0.000E+00  0.000E+00  0.000E+00
 -10.198  0.000E+00  0.000E+00  0.000E+00  0.000E+00
 -10.098  0.000E+00  0.000E+00  0.000E+00  0.000E+00
  -9.998  0.000E+00  0.000E+00  0.000E+00  0.000E+00
  -9.898  0.000E+00  0.000E+00  0.000E+00  0.000E+00
  -9.798  0.000E+00  0.000E+00  0.000E+00  0.000E+00
  -9.698  0.000E+00  0.000E+00  0.000E+00  0.000E+00
  -9.598  0.000E+00  0.000E+00  0.000E+00  0.000E+00
  -9.498  0.000E+00  0.000E+00  0.000E+00  0.000E+00
  -9.398  0.000E+00  0.000E+00  0.000E+00  0.000E+00
  -9.298  0.000E+00  0.000E+00  0.000E+00  0.000E+00
  -9.198  0.000E+00  0.000E+00  0.000E+00  0.000E+00
  -9.098  0.000E+00  0.000E+00  0.000E+00  0.000E+00
  -8.998  0.000E+00  0.000E+00  0.000E+00  0.000E+00
  -8.898  0.000E+00  0.000E+00  0.000E+00  0.000E+00
  -8.798  0.000E+00  0.000E+00  0.000E+00  0.000E+00
  -8.698  0.256E-13  0.114E-15  0.127E-13  0.127E-13
  -8.598  0.122E-11  0.550E-14  0.610E-12  0.609E-12
  -8.498  0.404E-10  0.180E-12  0.201E-10  0.201E-10
  -8.398  0.102E-08  0.453E-11  0.508E-09  0.507E-09
  -8.298  0.198E-07  0.876E-10  0.986E-08  0.984E-08
  -8.198  0.295E-06  0.130E-08  0.147E-06  0.147E-06
  -8.098  0.340E-05  0.150E-07  0.169E-05  0.169E-05
  -7.998  0.302E-04  0.133E-06  0.150E-04  0.150E-04
  -7.898  0.208E-03  0.931E-06  0.104E-03  0.103E-03
  -7.798  0.111E-02  0.518E-05  0.555E-03  0.553E-03
  -7.698  0.466E-02  0.239E-04  0.232E-02  0.231E-02
  -7.598  0.153E-01  0.971E-04  0.763E-02  0.761E-02
  -7.498  0.402E-01  0.371E-03  0.199E-01  0.199E-01
  -7.398  0.853E-01  0.136E-02  0.420E-01  0.419E-01
  -7.298  0.151E+00  0.457E-02  0.731E-01  0.729E-01
  -7.198  0.230E+00  0.134E-01  0.109E+00  0.108E+00
  -7.098  0.321E+00  0.331E-01  0.144E+00  0.144E+00
  -6.998  0.428E+00  0.687E-01  0.180E+00  0.180E+00
  -6.898  0.561E+00  0.121E+00  0.220E+00  0.220E+00
  -6.798  0.713E+00  0.184E+00  0.265E+00  0.264E+00
  -6.698  0.860E+00  0.245E+00  0.308E+00  0.307E+00
  -6.598  0.964E+00  0.288E+00  0.338E+00  0.337E+00
  -6.498  0.991E+00  0.299E+00  0.346E+00  0.346E+00
  -6.398  0.930E+00  0.272E+00  0.329E+00  0.329E+00
  -6.298  0.800E+00  0.218E+00  0.291E+00  0.291E+00
  -6.198  0.644E+00  0.160E+00  0.242E+00  0.242E+00
  -6.098  0.504E+00  0.117E+00  0.193E+00  0.194E+00
  -5.998  0.401E+00  0.927E-01  0.154E+00  0.154E+00
  -5.898  0.335E+00  0.811E-01  0.127E+00  0.127E+00
  -5.798  0.298E+00  0.767E-01  0.110E+00  0.111E+00
  -5.698  0.289E+00  0.823E-01  0.103E+00  0.104E+00
  -5.598  0.319E+00  0.108E+00  0.105E+00  0.106E+00
  -5.498  0.395E+00  0.161E+00  0.117E+00  0.117E+00
  -5.398  0.507E+00  0.234E+00  0.137E+00  0.137E+00
  -5.298  0.626E+00  0.305E+00  0.160E+00  0.161E+00
  -5.198  0.710E+00  0.349E+00  0.180E+00  0.181E+00
  -5.098  0.732E+00  0.353E+00  0.189E+00  0.190E+00
  -4.998  0.698E+00  0.324E+00  0.186E+00  0.188E+00
  -4.898  0.650E+00  0.282E+00  0.183E+00  0.185E+00
  -4.798  0.649E+00  0.253E+00  0.196E+00  0.200E+00
  -4.698  0.733E+00  0.251E+00  0.239E+00  0.244E+00
  -4.598  0.877E+00  0.269E+00  0.302E+00  0.307E+00
  -4.498  0.100E+01  0.285E+00  0.356E+00  0.359E+00
  -4.398  0.102E+01  0.279E+00  0.372E+00  0.372E+00
  -4.298  0.927E+00  0.249E+00  0.341E+00  0.337E+00
  -4.198  0.766E+00  0.207E+00  0.282E+00  0.277E+00
  -4.098  0.612E+00  0.169E+00  0.223E+00  0.220E+00
  -3.998  0.504E+00  0.143E+00  0.182E+00  0.179E+00
  -3.898  0.443E+00  0.128E+00  0.158E+00  0.157E+00
  -3.798  0.423E+00  0.124E+00  0.150E+00  0.150E+00
  -3.698  0.430E+00  0.129E+00  0.150E+00  0.151E+00
  -3.598  0.452E+00  0.139E+00  0.156E+00  0.157E+00
  -3.498  0.489E+00  0.157E+00  0.166E+00  0.167E+00
  -3.398  0.555E+00  0.187E+00  0.184E+00  0.184E+00
  -3.298  0.658E+00  0.237E+00  0.210E+00  0.210E+00
  -3.198  0.782E+00  0.304E+00  0.239E+00  0.239E+00
  -3.098  0.890E+00  0.367E+00  0.261E+00  0.261E+00
  -2.998  0.943E+00  0.405E+00  0.269E+00  0.269E+00
  -2.898  0.928E+00  0.404E+00  0.262E+00  0.262E+00
  -2.798  0.867E+00  0.377E+00  0.245E+00  0.245E+00
  -2.698  0.798E+00  0.345E+00  0.227E+00  0.226E+00
  -2.598  0.749E+00  0.323E+00  0.213E+00  0.212E+00
  -2.498  0.726E+00  0.314E+00  0.207E+00  0.206E+00
  -2.398  0.721E+00  0.311E+00  0.206E+00  0.205E+00
  -2.298  0.715E+00  0.304E+00  0.206E+00  0.205E+00
  -2.198  0.688E+00  0.284E+00  0.203E+00  0.201E+00
  -2.098  0.633E+00  0.251E+00  0.192E+00  0.190E+00
  -1.998  0.563E+00  0.211E+00  0.177E+00  0.175E+00
  -1.898  0.495E+00  0.177E+00  0.160E+00  0.159E+00
  -1.798  0.439E+00  0.154E+00  0.143E+00  0.142E+00
  -1.698  0.393E+00  0.142E+00  0.126E+00  0.125E+00
  -1.598  0.352E+00  0.139E+00  0.107E+00  0.106E+00
  -1.498  0.309E+00  0.136E+00  0.863E-01  0.863E-01
  -1.398  0.258E+00  0.126E+00  0.660E-01  0.660E-01
  -1.298  0.199E+00  0.105E+00  0.471E-01  0.472E-01
  -1.198  0.136E+00  0.742E-01  0.310E-01  0.311E-01
  -1.098  0.805E-01  0.436E-01  0.184E-01  0.185E-01
  -0.998  0.400E-01  0.209E-01  0.954E-02  0.959E-02
  -0.898  0.165E-01  0.809E-02  0.420E-02  0.422E-02
  -0.798  0.557E-02  0.251E-02  0.152E-02  0.153E-02
  -0.698  0.153E-02  0.626E-03  0.448E-03  0.451E-03
  -0.598  0.336E-03  0.125E-03  0.105E-03  0.106E-03
  -0.498  0.588E-04  0.198E-04  0.194E-04  0.196E-04
  -0.398  0.815E-05  0.251E-05  0.281E-05  0.283E-05
  -0.298  0.887E-06  0.252E-06  0.316E-06  0.318E-06
  -0.198  0.770E-07  0.203E-07  0.283E-07  0.284E-07
  -0.098  0.360E-07  0.782E-08  0.141E-07  0.141E-07
   0.002  0.444E-06  0.932E-07  0.175E-06  0.175E-06
   0.102  0.491E-05  0.102E-05  0.194E-05  0.195E-05
   0.202  0.422E-04  0.876E-05  0.167E-04  0.167E-04
   0.302  0.283E-03  0.587E-04  0.112E-03  0.112E-03
   0.402  0.148E-02  0.310E-03  0.584E-03  0.586E-03
   0.502  0.611E-02  0.130E-02  0.240E-02  0.241E-02
   0.602  0.200E-01  0.436E-02  0.782E-02  0.785E-02
   0.702  0.529E-01  0.119E-01  0.204E-01  0.205E-01
   0.802  0.114E+00  0.268E-01  0.434E-01  0.436E-01
   0.902  0.204E+00  0.506E-01  0.764E-01  0.768E-01
   1.002  0.309E+00  0.812E-01  0.114E+00  0.114E+00
   1.102  0.408E+00  0.112E+00  0.148E+00  0.148E+00
   1.202  0.482E+00  0.136E+00  0.173E+00  0.173E+00
   1.302  0.532E+00  0.149E+00  0.192E+00  0.191E+00
   1.402  0.573E+00  0.152E+00  0.211E+00  0.211E+00
   1.502  0.622E+00  0.152E+00  0.235E+00  0.235E+00
   1.602  0.674E+00  0.155E+00  0.260E+00  0.260E+00
   1.702  0.707E+00  0.159E+00  0.274E+00  0.274E+00
   1.802  0.698E+00  0.160E+00  0.269E+00  0.268E+00
   1.902  0.640E+00  0.153E+00  0.244E+00  0.244E+00
   2.002  0.543E+00  0.134E+00  0.204E+00  0.205E+00
   2.102  0.417E+00  0.106E+00  0.155E+00  0.156E+00
   2.202  0.283E+00  0.726E-01  0.104E+00  0.106E+00
   2.302  0.165E+00  0.422E-01  0.602E-01  0.622E-01
   2.402  0.801E-01  0.204E-01  0.290E-01  0.307E-01
   2.502  0.320E-01  0.801E-02  0.115E-01  0.125E-01
   2.602  0.104E-01  0.255E-02  0.370E-02  0.417E-02
   2.702  0.275E-02  0.658E-03  0.959E-03  0.113E-02
   2.802  0.584E-03  0.137E-03  0.199E-03  0.248E-03
   2.902  0.998E-04  0.231E-04  0.330E-04  0.436E-04
   3.002  0.136E-04  0.315E-05  0.435E-05  0.614E-05
   3.102  0.148E-05  0.344E-06  0.455E-06  0.686E-06
   3.202  0.128E-06  0.301E-07  0.374E-07  0.605E-07
