# E (eV)   ldos(E)   pdos(E)    pdos(E)    pdos(E)   
 -16.398  0.493E-07  0.441E-07  0.264E-08  0.264E-08
 -16.298  0.445E-06  0.392E-06  0.261E-07  0.262E-07
 -16.198  0.311E-05  0.270E-05  0.202E-06  0.203E-06
 -16.098  0.169E-04  0.145E-04  0.123E-05  0.123E-05
 -15.998  0.722E-04  0.604E-04  0.591E-05  0.593E-05
 -15.898  0.243E-03  0.198E-03  0.227E-04  0.228E-04
 -15.798  0.653E-03  0.512E-03  0.702E-04  0.704E-04
 -15.698  0.142E-02  0.106E-02  0.178E-03  0.178E-03
 -15.598  0.254E-02  0.179E-02  0.375E-03  0.376E-03
 -15.498  0.386E-02  0.251E-02  0.672E-03  0.674E-03
 -15.398  0.510E-02  0.300E-02  0.105E-02  0.105E-02
 -15.298  0.609E-02  0.314E-02  0.147E-02  0.148E-02
 -15.198  0.681E-02  0.300E-02  0.190E-02  0.191E-02
 -15.098  0.738E-02  0.275E-02  0.231E-02  0.232E-02
 -14.998  0.794E-02  0.255E-02  0.269E-02  0.270E-02
 -14.898  0.859E-02  0.250E-02  0.304E-02  0.305E-02
 -14.798  0.934E-02  0.260E-02  0.336E-02  0.337E-02
 -14.698  0.102E-01  0.284E-02  0.366E-02  0.367E-02
 -14.598  0.112E-01  0.322E-02  0.396E-02  0.397E-02
 -14.498  0.123E-01  0.375E-02  0.430E-02  0.431E-02
 -14.398  0.138E-01  0.440E-02  0.471E-02  0.472E-02
 -14.298  0.156E-01  0.509E-02  0.523E-02  0.525E-02
 -14.198  0.174E-01  0.572E-02  0.585E-02  0.587E-02
 -14.098  0.193E-01  0.623E-02  0.651E-02  0.653E-02
 -13.998  0.209E-01  0.666E-02  0.714E-02  0.715E-02
 -13.898  0.225E-01  0.716E-02  0.766E-02  0.767E-02
 -13.798  0.239E-01  0.789E-02  0.800E-02  0.802E-02
 -13.698  0.251E-01  0.887E-02  0.809E-02  0.811E-02
 -13.598  0.256E-01  0.979E-02  0.787E-02  0.789E-02
 -13.498  0.248E-01  0.101E-01  0.730E-02  0.733E-02
 -13.398  0.224E-01  0.951E-02  0.641E-02  0.644E-02
 -13.298  0.186E-01  0.804E-02  0.527E-02  0.531E-02
 -13.198  0.141E-01  0.611E-02  0.400E-02  0.403E-02
 -13.098  0.966E-02  0.418E-02  0.273E-02  0.275E-02
 -12.998  0.584E-02  0.255E-02  0.164E-02  0.165E-02
 -12.898  0.305E-02  0.136E-02  0.840E-03  0.848E-03
 -12.798  0.135E-02  0.622E-03  0.362E-03  0.365E-03
 -12.698  0.495E-03  0.237E-03  0.129E-03  0.130E-03
 -12.598  0.148E-03  0.737E-04  0.372E-04  0.375E-04
 -12.498  0.359E-04  0.185E-04  0.866E-05  0.874E-05
 -12.398  0.694E-05  0.371E-05  0.161E-05  0.162E-05
 -12.298  0.106E-05  0.587E-06  0.237E-06  0.239E-06
 -12.198  0.128E-06  0.729E-07  0.274E-07  0.276E-07
 -12.098  0.121E-07  0.707E-08  0.248E-08  0.251E-08
 -11.998  0.887E-09  0.534E-09  0.176E-09  0.177E-09
 -11.898  0.506E-10  0.312E-10  0.967E-11  0.976E-11
 -11.798  0.224E-11  0.141E-11  0.412E-12  0.416E-12
 -11.698  0.761E-13  0.491E-13  0.135E-13  0.136E-13
 -11.598  0.187E-14  0.125E-14  0.310E-15  0.312E-15
 -11.498  0.000E+00  0.000E+00  0.000E+00  0.000E+00
 -11.398  0.000E+00  0.000E+00  0.000E+00  0.000E+00
 -11.298  0.000E+00  0.000E+00  0.000E+00  0.000E+00
 -11.198  0.000E+00  0.000E+00  0.000E+00  0.000E+00
 -11.098  0.000E+00  0.000E+00  0.000E+00  0.000E+00
 -10.998  0.000E+00  0.000E+00  0.000E+00  0.000E+00
 -10.898  0.000E+00  0.000E+00  0.000E+00  0.000E+00
 -10.798  0.000E+00  0.000E+00  0.000E+00  0.000E+00
 -10.698  0.000E+00  0.000E+00  0.000E+00  0.000E+00
 -10.598  0.000E+00  0.000E+00  0.000E+00  0.000E+00
 -10.498  0.000E+00  0.000E+00  0.000E+00  0.000E+00
 -10.398  0.000E+00  0.000E+00  0.000E+00  0.000E+00
 -10.298  0.000E+00  0.000E+00  0.000E+00  0.000E+00
 -10.198  0.000E+00  0.000E+00  0.000E+00  0.000E+00
 -10.098  0.000E+00  0.000E+00  0.000E+00  0.000E+00
  -9.998  0.000E+00  0.000E+00  0.000E+00  0.000E+00
  -9.898  0.000E+00  0.000E+00  0.000E+00  0.000E+00
  -9.798  0.000E+00  0.000E+00  0.000E+00  0.000E+00
  -9.698  0.000E+00  0.000E+00  0.000E+00  0.000E+00
  -9.598  0.000E+00  0.000E+00  0.000E+00  0.000E+00
  -9.498  0.000E+00  0.000E+00  0.000E+00  0.000E+00
  -9.398  0.000E+00  0.000E+00  0.000E+00  0.000E+00
  -9.298  0.000E+00  0.000E+00  0.000E+00  0.000E+00
  -9.198  0.000E+00  0.000E+00  0.000E+00  0.000E+00
  -9.098  0.000E+00  0.000E+00  0.000E+00  0.000E+00
  -8.998  0.000E+00  0.000E+00  0.000E+00  0.000E+00
  -8.898  0.000E+00  0.000E+00  0.000E+00  0.000E+00
  -8.798  0.000E+00  0.000E+00  0.000E+00  0.000E+00
  -8.698  0.255E-13  0.106E-15  0.127E-13  0.127E-13
  -8.598  0.122E-11  0.513E-14  0.606E-12  0.608E-12
  -8.498  0.402E-10  0.170E-12  0.200E-10  0.201E-10
  -8.398  0.101E-08  0.433E-11  0.504E-09  0.506E-09
  -8.298  0.197E-07  0.845E-10  0.978E-08  0.981E-08
  -8.198  0.294E-06  0.127E-08  0.146E-06  0.146E-06
  -8.098  0.338E-05  0.147E-07  0.168E-05  0.169E-05
  -7.998  0.300E-04  0.133E-06  0.149E-04  0.150E-04
  -7.898  0.207E-03  0.934E-06  0.103E-03  0.103E-03
  -7.798  0.111E-02  0.523E-05  0.550E-03  0.552E-03
  -7.698  0.463E-02  0.242E-04  0.230E-02  0.231E-02
  -7.598  0.152E-01  0.980E-04  0.757E-02  0.758E-02
  -7.498  0.400E-01  0.371E-03  0.198E-01  0.198E-01
  -7.398  0.849E-01  0.134E-02  0.417E-01  0.418E-01
  -7.298  0.150E+00  0.450E-02  0.727E-01  0.728E-01
  -7.198  0.229E+00  0.132E-01  0.108E+00  0.108E+00
  -7.098  0.320E+00  0.329E-01  0.143E+00  0.144E+00
  -6.998  0.428E+00  0.693E-01  0.179E+00  0.180E+00
  -6.898  0.563E+00  0.124E+00  0.219E+00  0.220E+00
  -6.798  0.720E+00  0.192E+00  0.264E+00  0.264E+00
  -6.698  0.871E+00  0.258E+00  0.306E+00  0.307E+00
  -6.598  0.978E+00  0.303E+00  0.337E+00  0.338E+00
  -6.498  0.100E+01  0.313E+00  0.345E+00  0.346E+00
  -6.398  0.941E+00  0.284E+00  0.329E+00  0.329E+00
  -6.298  0.809E+00  0.227E+00  0.291E+00  0.291E+00
  -6.198  0.652E+00  0.168E+00  0.242E+00  0.242E+00
  -6.098  0.511E+00  0.123E+00  0.194E+00  0.193E+00
  -5.998  0.407E+00  0.985E-01  0.154E+00  0.154E+00
  -5.898  0.340E+00  0.865E-01  0.127E+00  0.127E+00
  -5.798  0.302E+00  0.812E-01  0.110E+00  0.110E+00
  -5.698  0.292E+00  0.850E-01  0.103E+00  0.103E+00
  -5.598  0.317E+00  0.107E+00  0.105E+00  0.105E+00
  -5.498  0.387E+00  0.153E+00  0.117E+00  0.117E+00
  -5.398  0.492E+00  0.220E+00  0.136E+00  0.136E+00
  -5.298  0.606E+00  0.286E+00  0.160E+00  0.160E+00
  -5.198  0.689E+00  0.329E+00  0.180E+00  0.180E+00
  -5.098  0.714E+00  0.337E+00  0.189E+00  0.188E+00
  -4.998  0.685E+00  0.312E+00  0.187E+00  0.186E+00
  -4.898  0.641E+00  0.275E+00  0.184E+00  0.182E+00
  -4.798  0.644E+00  0.251E+00  0.198E+00  0.196E+00
  -4.698  0.731E+00  0.252E+00  0.240E+00  0.238E+00
  -4.598  0.879E+00  0.274E+00  0.303E+00  0.301E+00
  -4.498  0.101E+01  0.294E+00  0.357E+00  0.356E+00
  -4.398  0.104E+01  0.291E+00  0.372E+00  0.372E+00
  -4.298  0.941E+00  0.261E+00  0.340E+00  0.341E+00
  -4.198  0.779E+00  0.216E+00  0.281E+00  0.282E+00
  -4.098  0.620E+00  0.174E+00  0.223E+00  0.224E+00
  -3.998  0.507E+00  0.143E+00  0.181E+00  0.182E+00
  -3.898  0.443E+00  0.126E+00  0.159E+00  0.158E+00
  -3.798  0.422E+00  0.122E+00  0.150E+00  0.150E+00
  -3.698  0.429E+00  0.128E+00  0.151E+00  0.150E+00
  -3.598  0.452E+00  0.140E+00  0.156E+00  0.156E+00
  -3.498  0.489E+00  0.157E+00  0.166E+00  0.166E+00
  -3.398  0.555E+00  0.187E+00  0.184E+00  0.184E+00
  -3.298  0.659E+00  0.238E+00  0.210E+00  0.211E+00
  -3.198  0.787E+00  0.307E+00  0.239E+00  0.240E+00
  -3.098  0.899E+00  0.375E+00  0.262E+00  0.262E+00
  -2.998  0.956E+00  0.416E+00  0.270E+00  0.270E+00
  -2.898  0.942E+00  0.417E+00  0.263E+00  0.263E+00
  -2.798  0.878E+00  0.387E+00  0.245E+00  0.245E+00
  -2.698  0.803E+00  0.349E+00  0.227E+00  0.227E+00
  -2.598  0.748E+00  0.321E+00  0.213E+00  0.213E+00
  -2.498  0.725E+00  0.311E+00  0.207E+00  0.207E+00
  -2.398  0.726E+00  0.315E+00  0.206E+00  0.206E+00
  -2.298  0.731E+00  0.319E+00  0.206E+00  0.206E+00
  -2.198  0.713E+00  0.308E+00  0.202E+00  0.203E+00
  -2.098  0.661E+00  0.277E+00  0.192E+00  0.192E+00
  -1.998  0.585E+00  0.233E+00  0.176E+00  0.176E+00
  -1.898  0.509E+00  0.190E+00  0.160E+00  0.159E+00
  -1.798  0.443E+00  0.157E+00  0.143E+00  0.143E+00
  -1.698  0.391E+00  0.139E+00  0.126E+00  0.126E+00
  -1.598  0.346E+00  0.131E+00  0.107E+00  0.108E+00
  -1.498  0.302E+00  0.127E+00  0.868E-01  0.878E-01
  -1.398  0.252E+00  0.118E+00  0.664E-01  0.673E-01
  -1.298  0.193E+00  0.978E-01  0.475E-01  0.482E-01
  -1.198  0.132E+00  0.690E-01  0.313E-01  0.317E-01
  -1.098  0.776E-01  0.402E-01  0.186E-01  0.188E-01
  -0.998  0.383E-01  0.190E-01  0.963E-02  0.973E-02
  -0.898  0.157E-01  0.718E-02  0.424E-02  0.428E-02
  -0.798  0.526E-02  0.216E-02  0.154E-02  0.155E-02
  -0.698  0.143E-02  0.518E-03  0.453E-03  0.457E-03
  -0.598  0.312E-03  0.983E-04  0.106E-03  0.107E-03
  -0.498  0.542E-04  0.148E-04  0.196E-04  0.198E-04
  -0.398  0.747E-05  0.177E-05  0.284E-05  0.286E-05
  -0.298  0.809E-06  0.167E-06  0.320E-06  0.322E-06
  -0.198  0.702E-07  0.129E-07  0.286E-07  0.288E-07
  -0.098  0.354E-07  0.725E-08  0.141E-07  0.141E-07
   0.002  0.445E-06  0.939E-07  0.176E-06  0.175E-06
   0.102  0.494E-05  0.105E-05  0.196E-05  0.194E-05
   0.202  0.426E-04  0.906E-05  0.169E-04  0.167E-04
   0.302  0.286E-03  0.611E-04  0.113E-03  0.112E-03
   0.402  0.150E-02  0.323E-03  0.591E-03  0.583E-03
   0.502  0.617E-02  0.135E-02  0.243E-02  0.240E-02
   0.602  0.202E-01  0.447E-02  0.792E-02  0.781E-02
   0.702  0.531E-01  0.120E-01  0.207E-01  0.204E-01
   0.802  0.114E+00  0.264E-01  0.440E-01  0.434E-01
   0.902  0.203E+00  0.486E-01  0.774E-01  0.765E-01
   1.002  0.306E+00  0.763E-01  0.115E+00  0.114E+00
   1.102  0.401E+00  0.104E+00  0.149E+00  0.148E+00
   1.202  0.474E+00  0.126E+00  0.174E+00  0.174E+00
   1.302  0.523E+00  0.138E+00  0.193E+00  0.192E+00
   1.402  0.565E+00  0.141E+00  0.212E+00  0.212E+00
   1.502  0.615E+00  0.143E+00  0.236E+00  0.236E+00
   1.602  0.667E+00  0.146E+00  0.260E+00  0.260E+00
   1.702  0.699E+00  0.152E+00  0.273E+00  0.274E+00
   1.802  0.690E+00  0.154E+00  0.267E+00  0.269E+00
   1.902  0.635E+00  0.148E+00  0.242E+00  0.245E+00
   2.002  0.539E+00  0.130E+00  0.203E+00  0.206E+00
   2.102  0.415E+00  0.103E+00  0.154E+00  0.157E+00
   2.202  0.282E+00  0.706E-01  0.104E+00  0.107E+00
   2.302  0.164E+00  0.409E-01  0.605E-01  0.628E-01
   2.402  0.799E-01  0.195E-01  0.294E-01  0.310E-01
   2.502  0.319E-01  0.761E-02  0.117E-01  0.126E-01
   2.602  0.104E-01  0.239E-02  0.376E-02  0.421E-02
   2.702  0.272E-02  0.602E-03  0.974E-03  0.114E-02
   2.802  0.573E-03  0.122E-03  0.202E-03  0.250E-03
   2.902  0.970E-04  0.197E-04  0.334E-04  0.439E-04
   3.002  0.131E-04  0.254E-05  0.440E-05  0.617E-05
   3.102  0.141E-05  0.260E-06  0.459E-06  0.688E-06
   3.202  0.119E-06  0.211E-07  0.377E-07  0.606E-07
