# E (eV)   ldos(E)   pdos(E)    pdos(E)    pdos(E)   
 -16.398  0.495E-07  0.443E-07  0.263E-08  0.264E-08
 -16.298  0.446E-06  0.394E-06  0.261E-07  0.261E-07
 -16.198  0.312E-05  0.272E-05  0.202E-06  0.202E-06
 -16.098  0.170E-04  0.145E-04  0.123E-05  0.123E-05
 -15.998  0.725E-04  0.606E-04  0.590E-05  0.592E-05
 -15.898  0.244E-03  0.199E-03  0.227E-04  0.227E-04
 -15.798  0.655E-03  0.515E-03  0.701E-04  0.704E-04
 -15.698  0.142E-02  0.107E-02  0.177E-03  0.178E-03
 -15.598  0.255E-02  0.180E-02  0.374E-03  0.376E-03
 -15.498  0.387E-02  0.253E-02  0.670E-03  0.674E-03
 -15.398  0.512E-02  0.301E-02  0.105E-02  0.105E-02
 -15.298  0.611E-02  0.315E-02  0.147E-02  0.148E-02
 -15.198  0.683E-02  0.301E-02  0.190E-02  0.191E-02
 -15.098  0.739E-02  0.276E-02  0.232E-02  0.232E-02
 -14.998  0.796E-02  0.255E-02  0.270E-02  0.270E-02
 -14.898  0.861E-02  0.250E-02  0.305E-02  0.305E-02
 -14.798  0.936E-02  0.261E-02  0.337E-02  0.337E-02
 -14.698  0.102E-01  0.286E-02  0.367E-02  0.367E-02
 -14.598  0.112E-01  0.325E-02  0.397E-02  0.397E-02
 -14.498  0.124E-01  0.378E-02  0.430E-02  0.430E-02
 -14.398  0.139E-01  0.443E-02  0.472E-02  0.472E-02
 -14.298  0.156E-01  0.509E-02  0.524E-02  0.524E-02
 -14.198  0.174E-01  0.566E-02  0.586E-02  0.586E-02
 -14.098  0.191E-01  0.611E-02  0.652E-02  0.651E-02
 -13.998  0.208E-01  0.651E-02  0.715E-02  0.713E-02
 -13.898  0.224E-01  0.705E-02  0.768E-02  0.765E-02
 -13.798  0.239E-01  0.787E-02  0.803E-02  0.799E-02
 -13.698  0.252E-01  0.898E-02  0.812E-02  0.808E-02
 -13.598  0.258E-01  0.100E-01  0.790E-02  0.786E-02
 -13.498  0.251E-01  0.105E-01  0.733E-02  0.729E-02
 -13.398  0.227E-01  0.986E-02  0.644E-02  0.641E-02
 -13.298  0.189E-01  0.835E-02  0.530E-02  0.528E-02
 -13.198  0.144E-01  0.636E-02  0.402E-02  0.401E-02
 -13.098  0.986E-02  0.438E-02  0.274E-02  0.274E-02
 -12.998  0.600E-02  0.271E-02  0.164E-02  0.164E-02
 -12.898  0.317E-02  0.148E-02  0.842E-03  0.844E-03
 -12.798  0.142E-02  0.695E-03  0.362E-03  0.364E-03
 -12.698  0.531E-03  0.273E-03  0.129E-03  0.129E-03
 -12.598  0.162E-03  0.878E-04  0.371E-04  0.374E-04
 -12.498  0.402E-04  0.228E-04  0.864E-05  0.870E-05
 -12.398  0.794E-05  0.472E-05  0.160E-05  0.162E-05
 -12.298  0.124E-05  0.770E-06  0.236E-06  0.238E-06
 -12.198  0.153E-06  0.985E-07  0.273E-07  0.275E-07
 -12.098  0.148E-07  0.981E-08  0.248E-08  0.250E-08
 -11.998  0.111E-08  0.759E-09  0.175E-09  0.177E-09
 -11.898  0.648E-10  0.454E-10  0.965E-11  0.973E-11
 -11.798  0.292E-11  0.210E-11  0.412E-12  0.415E-12
 -11.698  0.101E-12  0.745E-13  0.135E-13  0.136E-13
 -11.598  0.259E-14  0.197E-14  0.309E-15  0.312E-15
 -11.498  0.000E+00  0.000E+00  0.000E+00  0.000E+00
 -11.398  0.000E+00  0.000E+00  0.000E+00  0.000E+00
 -11.298  0.000E+00  0.000E+00  0.000E+00  0.000E+00
 -11.198  0.000E+00  0.000E+00  0.000E+00  0.000E+00
 -11.098  0.000E+00  0.000E+00  0.000E+00  0.000E+00
 -10.998  0.000E+00  0.000E+00  0.000E+00  0.000E+00
 -10.898  0.000E+00  0.000E+00  0.000E+00  0.000E+00
 -10.798  0.000E+00  0.000E+00  0.000E+00  0.000E+00
 -10.698  0.000E+00  0.000E+00  0.000E+00  0.000E+00
 -10.598  0.000E+00  0.000E+00  0.000E+00  0.000E+00
 -10.498  0.000E+00  0.000E+00  0.000E+00  0.000E+00
 -10.398  0.000E+00  0.000E+00  0.000E+00  0.000E+00
 -10.298  0.000E+00  0.000E+00  0.000E+00  0.000E+00
 -10.198  0.000E+00  0.000E+00  0.000E+00  0.000E+00
 -10.098  0.000E+00  0.000E+00  0.000E+00  0.000E+00
  -9.998  0.000E+00  0.000E+00  0.000E+00  0.000E+00
  -9.898  0.000E+00  0.000E+00  0.000E+00  0.000E+00
  -9.798  0.000E+00  0.000E+00  0.000E+00  0.000E+00
  -9.698  0.000E+00  0.000E+00  0.000E+00  0.000E+00
  -9.598  0.000E+00  0.000E+00  0.000E+00  0.000E+00
  -9.498  0.000E+00  0.000E+00  0.000E+00  0.000E+00
  -9.398  0.000E+00  0.000E+00  0.000E+00  0.000E+00
  -9.298  0.000E+00  0.000E+00  0.000E+00  0.000E+00
  -9.198  0.000E+00  0.000E+00  0.000E+00  0.000E+00
  -9.098  0.000E+00  0.000E+00  0.000E+00  0.000E+00
  -8.998  0.000E+00  0.000E+00  0.000E+00  0.000E+00
  -8.898  0.000E+00  0.000E+00  0.000E+00  0.000E+00
  -8.798  0.000E+00  0.000E+00  0.000E+00  0.000E+00
  -8.698  0.255E-13  0.819E-16  0.127E-13  0.128E-13
  -8.598  0.122E-11  0.413E-14  0.606E-12  0.611E-12
  -8.498  0.403E-10  0.138E-12  0.200E-10  0.202E-10
  -8.398  0.102E-08  0.354E-11  0.505E-09  0.509E-09
  -8.298  0.197E-07  0.696E-10  0.979E-08  0.987E-08
  -8.198  0.294E-06  0.106E-08  0.146E-06  0.147E-06
  -8.098  0.339E-05  0.124E-07  0.168E-05  0.169E-05
  -7.998  0.301E-04  0.112E-06  0.149E-04  0.151E-04
  -7.898  0.207E-03  0.800E-06  0.103E-03  0.104E-03
  -7.798  0.111E-02  0.456E-05  0.550E-03  0.555E-03
  -7.698  0.464E-02  0.216E-04  0.230E-02  0.232E-02
  -7.598  0.153E-01  0.909E-04  0.757E-02  0.763E-02
  -7.498  0.401E-01  0.359E-03  0.198E-01  0.199E-01
  -7.398  0.852E-01  0.135E-02  0.418E-01  0.420E-01
  -7.298  0.150E+00  0.461E-02  0.727E-01  0.731E-01
  -7.198  0.230E+00  0.136E-01  0.108E+00  0.109E+00
  -7.098  0.322E+00  0.339E-01  0.144E+00  0.144E+00
  -6.998  0.430E+00  0.709E-01  0.180E+00  0.180E+00
  -6.898  0.565E+00  0.126E+00  0.220E+00  0.220E+00
  -6.798  0.720E+00  0.191E+00  0.264E+00  0.264E+00
  -6.698  0.869E+00  0.255E+00  0.307E+00  0.307E+00
  -6.598  0.974E+00  0.299E+00  0.338E+00  0.337E+00
  -6.498  0.100E+01  0.308E+00  0.346E+00  0.345E+00
  -6.398  0.937E+00  0.279E+00  0.330E+00  0.329E+00
  -6.298  0.806E+00  0.224E+00  0.292E+00  0.291E+00
  -6.198  0.648E+00  0.164E+00  0.242E+00  0.242E+00
  -6.098  0.507E+00  0.120E+00  0.194E+00  0.193E+00
  -5.998  0.404E+00  0.949E-01  0.155E+00  0.154E+00
  -5.898  0.337E+00  0.831E-01  0.127E+00  0.127E+00
  -5.798  0.300E+00  0.790E-01  0.111E+00  0.110E+00
  -5.698  0.291E+00  0.845E-01  0.104E+00  0.103E+00
  -5.598  0.319E+00  0.108E+00  0.106E+00  0.105E+00
  -5.498  0.391E+00  0.157E+00  0.117E+00  0.116E+00
  -5.398  0.499E+00  0.226E+00  0.137E+00  0.136E+00
  -5.298  0.617E+00  0.296E+00  0.160E+00  0.160E+00
  -5.198  0.703E+00  0.342E+00  0.180E+00  0.180E+00
  -5.098  0.728E+00  0.350E+00  0.189E+00  0.189E+00
  -4.998  0.696E+00  0.323E+00  0.187E+00  0.186E+00
  -4.898  0.648E+00  0.281E+00  0.184E+00  0.183E+00
  -4.798  0.646E+00  0.251E+00  0.199E+00  0.196E+00
  -4.698  0.729E+00  0.248E+00  0.242E+00  0.239E+00
  -4.598  0.874E+00  0.268E+00  0.305E+00  0.302E+00
  -4.498  0.100E+01  0.286E+00  0.358E+00  0.356E+00
  -4.398  0.103E+01  0.284E+00  0.371E+00  0.372E+00
  -4.298  0.933E+00  0.254E+00  0.338E+00  0.341E+00
  -4.198  0.771E+00  0.210E+00  0.278E+00  0.282E+00
  -4.098  0.613E+00  0.169E+00  0.221E+00  0.224E+00
  -3.998  0.500E+00  0.138E+00  0.180E+00  0.182E+00
  -3.898  0.437E+00  0.121E+00  0.157E+00  0.159E+00
  -3.798  0.417E+00  0.118E+00  0.149E+00  0.150E+00
  -3.698  0.426E+00  0.125E+00  0.150E+00  0.151E+00
  -3.598  0.450E+00  0.138E+00  0.156E+00  0.156E+00
  -3.498  0.490E+00  0.157E+00  0.166E+00  0.166E+00
  -3.398  0.557E+00  0.188E+00  0.184E+00  0.184E+00
  -3.298  0.659E+00  0.239E+00  0.210E+00  0.210E+00
  -3.198  0.784E+00  0.305E+00  0.239E+00  0.240E+00
  -3.098  0.892E+00  0.369E+00  0.262E+00  0.262E+00
  -2.998  0.947E+00  0.407E+00  0.270E+00  0.270E+00
  -2.898  0.932E+00  0.407E+00  0.262E+00  0.263E+00
  -2.798  0.870E+00  0.379E+00  0.245E+00  0.245E+00
  -2.698  0.797E+00  0.344E+00  0.227E+00  0.227E+00
  -2.598  0.743E+00  0.317E+00  0.213E+00  0.213E+00
  -2.498  0.719E+00  0.306E+00  0.206E+00  0.206E+00
  -2.398  0.715E+00  0.304E+00  0.205E+00  0.205E+00
  -2.298  0.711E+00  0.300E+00  0.205E+00  0.206E+00
  -2.198  0.687E+00  0.282E+00  0.202E+00  0.203E+00
  -2.098  0.633E+00  0.250E+00  0.191E+00  0.192E+00
  -1.998  0.563E+00  0.211E+00  0.176E+00  0.176E+00
  -1.898  0.496E+00  0.177E+00  0.159E+00  0.160E+00
  -1.798  0.440E+00  0.155E+00  0.143E+00  0.143E+00
  -1.698  0.395E+00  0.144E+00  0.125E+00  0.126E+00
  -1.598  0.354E+00  0.141E+00  0.106E+00  0.107E+00
  -1.498  0.311E+00  0.138E+00  0.862E-01  0.871E-01
  -1.398  0.260E+00  0.127E+00  0.659E-01  0.667E-01
  -1.298  0.200E+00  0.105E+00  0.471E-01  0.477E-01
  -1.198  0.136E+00  0.739E-01  0.311E-01  0.314E-01
  -1.098  0.804E-01  0.433E-01  0.185E-01  0.186E-01
  -0.998  0.399E-01  0.207E-01  0.958E-02  0.964E-02
  -0.898  0.164E-01  0.798E-02  0.422E-02  0.424E-02
  -0.798  0.554E-02  0.247E-02  0.153E-02  0.154E-02
  -0.698  0.152E-02  0.611E-03  0.451E-03  0.453E-03
  -0.598  0.333E-03  0.121E-03  0.106E-03  0.106E-03
  -0.498  0.582E-04  0.190E-04  0.196E-04  0.196E-04
  -0.398  0.805E-05  0.238E-05  0.283E-05  0.284E-05
  -0.298  0.875E-06  0.237E-06  0.319E-06  0.319E-06
  -0.198  0.759E-07  0.189E-07  0.285E-07  0.285E-07
  -0.098  0.361E-07  0.790E-08  0.141E-07  0.141E-07
   0.002  0.446E-06  0.956E-07  0.176E-06  0.175E-06
   0.102  0.494E-05  0.105E-05  0.195E-05  0.194E-05
   0.202  0.424E-04  0.896E-05  0.168E-04  0.167E-04
   0.302  0.284E-03  0.599E-04  0.112E-03  0.112E-03
   0.402  0.149E-02  0.315E-03  0.587E-03  0.584E-03
   0.502  0.613E-02  0.131E-02  0.241E-02  0.240E-02
   0.602  0.201E-01  0.439E-02  0.786E-02  0.782E-02
   0.702  0.529E-01  0.119E-01  0.205E-01  0.204E-01
   0.802  0.114E+00  0.266E-01  0.437E-01  0.435E-01
   0.902  0.203E+00  0.497E-01  0.768E-01  0.766E-01
   1.002  0.308E+00  0.790E-01  0.114E+00  0.114E+00
   1.102  0.405E+00  0.109E+00  0.148E+00  0.148E+00
   1.202  0.478E+00  0.131E+00  0.174E+00  0.173E+00
   1.302  0.527E+00  0.143E+00  0.192E+00  0.192E+00
   1.402  0.568E+00  0.145E+00  0.212E+00  0.212E+00
   1.502  0.616E+00  0.144E+00  0.236E+00  0.236E+00
   1.602  0.667E+00  0.147E+00  0.260E+00  0.260E+00
   1.702  0.700E+00  0.152E+00  0.274E+00  0.274E+00
   1.802  0.692E+00  0.154E+00  0.268E+00  0.269E+00
   1.902  0.637E+00  0.148E+00  0.244E+00  0.245E+00
   2.002  0.541E+00  0.130E+00  0.204E+00  0.206E+00
   2.102  0.417E+00  0.102E+00  0.156E+00  0.159E+00
   2.202  0.283E+00  0.698E-01  0.105E+00  0.108E+00
   2.302  0.165E+00  0.402E-01  0.610E-01  0.636E-01
   2.402  0.801E-01  0.192E-01  0.295E-01  0.314E-01
   2.502  0.320E-01  0.750E-02  0.117E-01  0.128E-01
   2.602  0.104E-01  0.238E-02  0.377E-02  0.427E-02
   2.702  0.274E-02  0.613E-03  0.977E-03  0.115E-02
   2.802  0.583E-03  0.128E-03  0.203E-03  0.252E-03
   2.902  0.996E-04  0.218E-04  0.336E-04  0.442E-04
   3.002  0.136E-04  0.299E-05  0.443E-05  0.619E-05
   3.102  0.148E-05  0.330E-06  0.462E-06  0.689E-06
   3.202  0.128E-06  0.291E-07  0.380E-07  0.606E-07
