# E (eV)   ldos(E)   pdos(E)   
 -16.398  0.142E-05  0.142E-05
 -16.298  0.127E-04  0.127E-04
 -16.198  0.875E-04  0.875E-04
 -16.098  0.470E-03  0.470E-03
 -15.998  0.197E-02  0.197E-02
 -15.898  0.648E-02  0.648E-02
 -15.798  0.169E-01  0.169E-01
 -15.698  0.356E-01  0.356E-01
 -15.598  0.612E-01  0.612E-01
 -15.498  0.885E-01  0.885E-01
 -15.398  0.111E+00  0.111E+00
 -15.298  0.127E+00  0.127E+00
 -15.198  0.136E+00  0.136E+00
 -15.098  0.142E+00  0.142E+00
 -14.998  0.147E+00  0.147E+00
 -14.898  0.153E+00  0.153E+00
 -14.798  0.160E+00  0.160E+00
 -14.698  0.172E+00  0.172E+00
 -14.598  0.195E+00  0.195E+00
 -14.498  0.232E+00  0.232E+00
 -14.398  0.287E+00  0.287E+00
 -14.298  0.352E+00  0.352E+00
 -14.198  0.419E+00  0.419E+00
 -14.098  0.481E+00  0.481E+00
 -13.998  0.543E+00  0.543E+00
 -13.898  0.612E+00  0.612E+00
 -13.798  0.698E+00  0.698E+00
 -13.698  0.797E+00  0.797E+00
 -13.598  0.898E+00  0.898E+00
 -13.498  0.980E+00  0.980E+00
 -13.398  0.102E+01  0.102E+01
 -13.298  0.101E+01  0.101E+01
 -13.198  0.925E+00  0.925E+00
 -13.098  0.764E+00  0.764E+00
 -12.998  0.552E+00  0.552E+00
 -12.898  0.340E+00  0.340E+00
 -12.798  0.174E+00  0.174E+00
 -12.698  0.732E-01  0.732E-01
 -12.598  0.247E-01  0.247E-01
 -12.498  0.666E-02  0.666E-02
 -12.398  0.142E-02  0.142E-02
 -12.298  0.236E-03  0.236E-03
 -12.198  0.306E-04  0.306E-04
 -12.098  0.308E-05  0.308E-05
 -11.998  0.240E-06  0.240E-06
 -11.898  0.145E-07  0.145E-07
 -11.798  0.669E-09  0.669E-09
 -11.698  0.238E-10  0.238E-10
 -11.598  0.635E-12  0.635E-12
 -11.498  0.000E+00  0.000E+00
 -11.398  0.000E+00  0.000E+00
 -11.298  0.000E+00  0.000E+00
 -11.198  0.000E+00  0.000E+00
 -11.098  0.000E+00  0.000E+00
 -10.998  0.000E+00  0.000E+00
 -10.898  0.000E+00  0.000E+00
 -10.798  0.000E+00  0.000E+00
 -10.698  0.000E+00  0.000E+00
 -10.598  0.000E+00  0.000E+00
 -10.498  0.000E+00  0.000E+00
 -10.398  0.000E+00  0.000E+00
 -10.298  0.000E+00  0.000E+00
 -10.198  0.000E+00  0.000E+00
 -10.098  0.000E+00  0.000E+00
  -9.998  0.000E+00  0.000E+00
  -9.898  0.000E+00  0.000E+00
  -9.798  0.000E+00  0.000E+00
  -9.698  0.000E+00  0.000E+00
  -9.598  0.000E+00  0.000E+00
  -9.498  0.000E+00  0.000E+00
  -9.398  0.000E+00  0.000E+00
  -9.298  0.000E+00  0.000E+00
  -9.198  0.000E+00  0.000E+00
  -9.098  0.000E+00  0.000E+00
  -8.998  0.000E+00  0.000E+00
  -8.898  0.000E+00  0.000E+00
  -8.798  0.000E+00  0.000E+00
  -8.698  0.407E-15  0.407E-15
  -8.598  0.195E-13  0.195E-13
  -8.498  0.644E-12  0.644E-12
  -8.398  0.163E-10  0.163E-10
  -8.298  0.316E-09  0.316E-09
  -8.198  0.472E-08  0.472E-08
  -8.098  0.545E-07  0.545E-07
  -7.998  0.486E-06  0.486E-06
  -7.898  0.337E-05  0.337E-05
  -7.798  0.182E-04  0.182E-04
  -7.698  0.775E-04  0.775E-04
  -7.598  0.263E-03  0.263E-03
  -7.498  0.723E-03  0.723E-03
  -7.398  0.165E-02  0.165E-02
  -7.298  0.323E-02  0.323E-02
  -7.198  0.552E-02  0.552E-02
  -7.098  0.845E-02  0.845E-02
  -6.998  0.117E-01  0.117E-01
  -6.898  0.150E-01  0.150E-01
  -6.798  0.180E-01  0.180E-01
  -6.698  0.210E-01  0.210E-01
  -6.598  0.238E-01  0.238E-01
  -6.498  0.258E-01  0.258E-01
  -6.398  0.260E-01  0.260E-01
  -6.298  0.240E-01  0.240E-01
  -6.198  0.205E-01  0.205E-01
  -6.098  0.166E-01  0.166E-01
  -5.998  0.135E-01  0.135E-01
  -5.898  0.115E-01  0.115E-01
  -5.798  0.114E-01  0.114E-01
  -5.698  0.147E-01  0.147E-01
  -5.598  0.242E-01  0.242E-01
  -5.498  0.426E-01  0.426E-01
  -5.398  0.694E-01  0.694E-01
  -5.298  0.989E-01  0.989E-01
  -5.198  0.122E+00  0.122E+00
  -5.098  0.131E+00  0.131E+00
  -4.998  0.124E+00  0.124E+00
  -4.898  0.104E+00  0.104E+00
  -4.798  0.818E-01  0.818E-01
  -4.698  0.623E-01  0.623E-01
  -4.598  0.481E-01  0.481E-01
  -4.498  0.383E-01  0.383E-01
  -4.398  0.307E-01  0.307E-01
  -4.298  0.241E-01  0.241E-01
  -4.198  0.189E-01  0.189E-01
  -4.098  0.151E-01  0.151E-01
  -3.998  0.126E-01  0.126E-01
  -3.898  0.109E-01  0.109E-01
  -3.798  0.983E-02  0.983E-02
  -3.698  0.975E-02  0.975E-02
  -3.598  0.110E-01  0.110E-01
  -3.498  0.147E-01  0.147E-01
  -3.398  0.227E-01  0.227E-01
  -3.298  0.355E-01  0.355E-01
  -3.198  0.506E-01  0.506E-01
  -3.098  0.631E-01  0.631E-01
  -2.998  0.684E-01  0.684E-01
  -2.898  0.653E-01  0.653E-01
  -2.798  0.567E-01  0.567E-01
  -2.698  0.470E-01  0.470E-01
  -2.598  0.389E-01  0.389E-01
  -2.498  0.329E-01  0.329E-01
  -2.398  0.289E-01  0.289E-01
  -2.298  0.264E-01  0.264E-01
  -2.198  0.253E-01  0.253E-01
  -2.098  0.251E-01  0.251E-01
  -1.998  0.249E-01  0.249E-01
  -1.898  0.237E-01  0.237E-01
  -1.798  0.212E-01  0.212E-01
  -1.698  0.179E-01  0.179E-01
  -1.598  0.145E-01  0.145E-01
  -1.498  0.115E-01  0.115E-01
  -1.398  0.886E-02  0.886E-02
  -1.298  0.640E-02  0.640E-02
  -1.198  0.411E-02  0.411E-02
  -1.098  0.224E-02  0.224E-02
  -0.998  0.101E-02  0.101E-02
  -0.898  0.364E-03  0.364E-03
  -0.798  0.104E-03  0.104E-03
  -0.698  0.234E-04  0.234E-04
  -0.598  0.409E-05  0.409E-05
  -0.498  0.555E-06  0.555E-06
  -0.398  0.582E-07  0.582E-07
  -0.298  0.472E-08  0.472E-08
  -0.198  0.341E-09  0.341E-09
  -0.098  0.901E-09  0.901E-09
   0.002  0.130E-07  0.130E-07
   0.102  0.147E-06  0.147E-06
   0.202  0.128E-05  0.128E-05
   0.302  0.873E-05  0.873E-05
   0.402  0.463E-04  0.463E-04
   0.502  0.193E-03  0.193E-03
   0.602  0.637E-03  0.637E-03
   0.702  0.168E-02  0.168E-02
   0.802  0.360E-02  0.360E-02
   0.902  0.633E-02  0.633E-02
   1.002  0.931E-02  0.931E-02
   1.102  0.117E-01  0.117E-01
   1.202  0.131E-01  0.131E-01
   1.302  0.144E-01  0.144E-01
   1.402  0.178E-01  0.178E-01
   1.502  0.254E-01  0.254E-01
   1.602  0.368E-01  0.368E-01
   1.702  0.481E-01  0.481E-01
   1.802  0.541E-01  0.541E-01
   1.902  0.523E-01  0.523E-01
   2.002  0.437E-01  0.437E-01
   2.102  0.316E-01  0.316E-01
   2.202  0.196E-01  0.196E-01
   2.302  0.102E-01  0.102E-01
   2.402  0.436E-02  0.436E-02
   2.502  0.150E-02  0.150E-02
   2.602  0.408E-03  0.408E-03
   2.702  0.875E-04  0.875E-04
   2.802  0.147E-04  0.147E-04
   2.902  0.194E-05  0.194E-05
   3.002  0.201E-06  0.201E-06
   3.102  0.163E-07  0.163E-07
   3.202  0.105E-08  0.105E-08
