# E (eV)   ldos(E)   pdos(E)    pdos(E)    pdos(E)   
 -16.398  0.495E-07  0.442E-07  0.264E-08  0.264E-08
 -16.298  0.446E-06  0.394E-06  0.261E-07  0.261E-07
 -16.198  0.312E-05  0.271E-05  0.202E-06  0.202E-06
 -16.098  0.170E-04  0.145E-04  0.123E-05  0.123E-05
 -15.998  0.724E-04  0.606E-04  0.591E-05  0.592E-05
 -15.898  0.244E-03  0.198E-03  0.227E-04  0.227E-04
 -15.798  0.655E-03  0.514E-03  0.703E-04  0.703E-04
 -15.698  0.142E-02  0.107E-02  0.178E-03  0.178E-03
 -15.598  0.255E-02  0.180E-02  0.375E-03  0.375E-03
 -15.498  0.388E-02  0.253E-02  0.672E-03  0.672E-03
 -15.398  0.514E-02  0.303E-02  0.105E-02  0.105E-02
 -15.298  0.614E-02  0.319E-02  0.148E-02  0.148E-02
 -15.198  0.688E-02  0.306E-02  0.191E-02  0.191E-02
 -15.098  0.745E-02  0.281E-02  0.232E-02  0.232E-02
 -14.998  0.800E-02  0.260E-02  0.270E-02  0.270E-02
 -14.898  0.863E-02  0.254E-02  0.305E-02  0.305E-02
 -14.798  0.937E-02  0.264E-02  0.337E-02  0.337E-02
 -14.698  0.102E-01  0.289E-02  0.366E-02  0.367E-02
 -14.598  0.112E-01  0.329E-02  0.396E-02  0.397E-02
 -14.498  0.125E-01  0.388E-02  0.429E-02  0.430E-02
 -14.398  0.140E-01  0.461E-02  0.471E-02  0.472E-02
 -14.298  0.158E-01  0.536E-02  0.523E-02  0.524E-02
 -14.198  0.177E-01  0.597E-02  0.585E-02  0.586E-02
 -14.098  0.194E-01  0.634E-02  0.650E-02  0.652E-02
 -13.998  0.208E-01  0.656E-02  0.712E-02  0.715E-02
 -13.898  0.222E-01  0.688E-02  0.764E-02  0.767E-02
 -13.798  0.236E-01  0.758E-02  0.798E-02  0.801E-02
 -13.698  0.248E-01  0.866E-02  0.807E-02  0.810E-02
 -13.598  0.255E-01  0.976E-02  0.785E-02  0.788E-02
 -13.498  0.249E-01  0.102E-01  0.730E-02  0.732E-02
 -13.398  0.226E-01  0.971E-02  0.642E-02  0.644E-02
 -13.298  0.188E-01  0.826E-02  0.529E-02  0.530E-02
 -13.198  0.144E-01  0.632E-02  0.401E-02  0.403E-02
 -13.098  0.986E-02  0.437E-02  0.273E-02  0.275E-02
 -12.998  0.600E-02  0.271E-02  0.164E-02  0.165E-02
 -12.898  0.317E-02  0.148E-02  0.839E-03  0.848E-03
 -12.798  0.142E-02  0.695E-03  0.361E-03  0.365E-03
 -12.698  0.530E-03  0.273E-03  0.128E-03  0.130E-03
 -12.598  0.162E-03  0.877E-04  0.370E-04  0.375E-04
 -12.498  0.401E-04  0.228E-04  0.860E-05  0.873E-05
 -12.398  0.792E-05  0.471E-05  0.160E-05  0.162E-05
 -12.298  0.124E-05  0.768E-06  0.235E-06  0.238E-06
 -12.198  0.153E-06  0.982E-07  0.272E-07  0.276E-07
 -12.098  0.148E-07  0.979E-08  0.247E-08  0.250E-08
 -11.998  0.111E-08  0.757E-09  0.175E-09  0.177E-09
 -11.898  0.647E-10  0.453E-10  0.961E-11  0.974E-11
 -11.798  0.292E-11  0.209E-11  0.410E-12  0.415E-12
 -11.698  0.101E-12  0.743E-13  0.134E-13  0.136E-13
 -11.598  0.259E-14  0.197E-14  0.308E-15  0.312E-15
 -11.498  0.000E+00  0.000E+00  0.000E+00  0.000E+00
 -11.398  0.000E+00  0.000E+00  0.000E+00  0.000E+00
 -11.298  0.000E+00  0.000E+00  0.000E+00  0.000E+00
 -11.198  0.000E+00  0.000E+00  0.000E+00  0.000E+00
 -11.098  0.000E+00  0.000E+00  0.000E+00  0.000E+00
 -10.998  0.000E+00  0.000E+00  0.000E+00  0.000E+00
 -10.898  0.000E+00  0.000E+00  0.000E+00  0.000E+00
 -10.798  0.000E+00  0.000E+00  0.000E+00  0.000E+00
 -10.698  0.000E+00  0.000E+00  0.000E+00  0.000E+00
 -10.598  0.000E+00  0.000E+00  0.000E+00  0.000E+00
 -10.498  0.000E+00  0.000E+00  0.000E+00  0.000E+00
 -10.398  0.000E+00  0.000E+00  0.000E+00  0.000E+00
 -10.298  0.000E+00  0.000E+00  0.000E+00  0.000E+00
 -10.198  0.000E+00  0.000E+00  0.000E+00  0.000E+00
 -10.098  0.000E+00  0.000E+00  0.000E+00  0.000E+00
  -9.998  0.000E+00  0.000E+00  0.000E+00  0.000E+00
  -9.898  0.000E+00  0.000E+00  0.000E+00  0.000E+00
  -9.798  0.000E+00  0.000E+00  0.000E+00  0.000E+00
  -9.698  0.000E+00  0.000E+00  0.000E+00  0.000E+00
  -9.598  0.000E+00  0.000E+00  0.000E+00  0.000E+00
  -9.498  0.000E+00  0.000E+00  0.000E+00  0.000E+00
  -9.398  0.000E+00  0.000E+00  0.000E+00  0.000E+00
  -9.298  0.000E+00  0.000E+00  0.000E+00  0.000E+00
  -9.198  0.000E+00  0.000E+00  0.000E+00  0.000E+00
  -9.098  0.000E+00  0.000E+00  0.000E+00  0.000E+00
  -8.998  0.000E+00  0.000E+00  0.000E+00  0.000E+00
  -8.898  0.000E+00  0.000E+00  0.000E+00  0.000E+00
  -8.798  0.000E+00  0.000E+00  0.000E+00  0.000E+00
  -8.698  0.255E-13  0.856E-16  0.127E-13  0.127E-13
  -8.598  0.122E-11  0.422E-14  0.608E-12  0.608E-12
  -8.498  0.403E-10  0.141E-12  0.201E-10  0.201E-10
  -8.398  0.102E-08  0.358E-11  0.506E-09  0.506E-09
  -8.298  0.197E-07  0.702E-10  0.982E-08  0.981E-08
  -8.198  0.294E-06  0.106E-08  0.147E-06  0.146E-06
  -8.098  0.338E-05  0.124E-07  0.169E-05  0.168E-05
  -7.998  0.301E-04  0.112E-06  0.150E-04  0.150E-04
  -7.898  0.207E-03  0.794E-06  0.103E-03  0.103E-03
  -7.798  0.111E-02  0.451E-05  0.553E-03  0.551E-03
  -7.698  0.464E-02  0.213E-04  0.231E-02  0.230E-02
  -7.598  0.153E-01  0.897E-04  0.760E-02  0.758E-02
  -7.498  0.400E-01  0.356E-03  0.199E-01  0.198E-01
  -7.398  0.850E-01  0.134E-02  0.419E-01  0.418E-01
  -7.298  0.150E+00  0.460E-02  0.729E-01  0.727E-01
  -7.198  0.230E+00  0.136E-01  0.108E+00  0.108E+00
  -7.098  0.321E+00  0.338E-01  0.144E+00  0.144E+00
  -6.998  0.430E+00  0.705E-01  0.180E+00  0.179E+00
  -6.898  0.563E+00  0.124E+00  0.219E+00  0.220E+00
  -6.798  0.717E+00  0.189E+00  0.264E+00  0.264E+00
  -6.698  0.866E+00  0.252E+00  0.307E+00  0.307E+00
  -6.598  0.970E+00  0.296E+00  0.337E+00  0.338E+00
  -6.498  0.998E+00  0.306E+00  0.345E+00  0.346E+00
  -6.398  0.937E+00  0.279E+00  0.329E+00  0.330E+00
  -6.298  0.806E+00  0.224E+00  0.291E+00  0.291E+00
  -6.198  0.647E+00  0.163E+00  0.242E+00  0.242E+00
  -6.098  0.503E+00  0.116E+00  0.193E+00  0.194E+00
  -5.998  0.398E+00  0.892E-01  0.154E+00  0.154E+00
  -5.898  0.331E+00  0.771E-01  0.127E+00  0.127E+00
  -5.798  0.295E+00  0.744E-01  0.110E+00  0.110E+00
  -5.698  0.289E+00  0.821E-01  0.103E+00  0.103E+00
  -5.598  0.319E+00  0.108E+00  0.105E+00  0.106E+00
  -5.498  0.391E+00  0.158E+00  0.117E+00  0.117E+00
  -5.398  0.499E+00  0.226E+00  0.136E+00  0.137E+00
  -5.298  0.615E+00  0.294E+00  0.160E+00  0.161E+00
  -5.198  0.700E+00  0.339E+00  0.181E+00  0.180E+00
  -5.098  0.725E+00  0.346E+00  0.190E+00  0.189E+00
  -4.998  0.692E+00  0.319E+00  0.187E+00  0.186E+00
  -4.898  0.645E+00  0.278E+00  0.184E+00  0.183E+00
  -4.798  0.644E+00  0.250E+00  0.198E+00  0.197E+00
  -4.698  0.728E+00  0.248E+00  0.241E+00  0.239E+00
  -4.598  0.873E+00  0.267E+00  0.304E+00  0.302E+00
  -4.498  0.100E+01  0.285E+00  0.358E+00  0.357E+00
  -4.398  0.103E+01  0.281E+00  0.372E+00  0.372E+00
  -4.298  0.932E+00  0.252E+00  0.340E+00  0.340E+00
  -4.198  0.772E+00  0.211E+00  0.280E+00  0.281E+00
  -4.098  0.616E+00  0.171E+00  0.222E+00  0.223E+00
  -3.998  0.505E+00  0.142E+00  0.181E+00  0.181E+00
  -3.898  0.442E+00  0.126E+00  0.158E+00  0.158E+00
  -3.798  0.422E+00  0.123E+00  0.150E+00  0.149E+00
  -3.698  0.432E+00  0.131E+00  0.151E+00  0.150E+00
  -3.598  0.457E+00  0.145E+00  0.156E+00  0.156E+00
  -3.498  0.497E+00  0.165E+00  0.166E+00  0.166E+00
  -3.398  0.565E+00  0.197E+00  0.184E+00  0.184E+00
  -3.298  0.668E+00  0.247E+00  0.210E+00  0.210E+00
  -3.198  0.791E+00  0.312E+00  0.240E+00  0.239E+00
  -3.098  0.899E+00  0.375E+00  0.262E+00  0.261E+00
  -2.998  0.951E+00  0.412E+00  0.270E+00  0.270E+00
  -2.898  0.934E+00  0.410E+00  0.262E+00  0.262E+00
  -2.798  0.868E+00  0.378E+00  0.245E+00  0.245E+00
  -2.698  0.792E+00  0.339E+00  0.226E+00  0.227E+00
  -2.598  0.737E+00  0.310E+00  0.213E+00  0.214E+00
  -2.498  0.712E+00  0.299E+00  0.206E+00  0.207E+00
  -2.398  0.711E+00  0.299E+00  0.205E+00  0.206E+00
  -2.298  0.710E+00  0.298E+00  0.206E+00  0.206E+00
  -2.198  0.688E+00  0.284E+00  0.202E+00  0.203E+00
  -2.098  0.636E+00  0.254E+00  0.191E+00  0.192E+00
  -1.998  0.566E+00  0.215E+00  0.175E+00  0.176E+00
  -1.898  0.497E+00  0.179E+00  0.159E+00  0.159E+00
  -1.798  0.439E+00  0.154E+00  0.143E+00  0.143E+00
  -1.698  0.391E+00  0.139E+00  0.126E+00  0.126E+00
  -1.598  0.347E+00  0.133E+00  0.107E+00  0.107E+00
  -1.498  0.303E+00  0.130E+00  0.874E-01  0.864E-01
  -1.398  0.254E+00  0.121E+00  0.670E-01  0.661E-01
  -1.298  0.197E+00  0.102E+00  0.480E-01  0.473E-01
  -1.198  0.136E+00  0.730E-01  0.316E-01  0.311E-01
  -1.098  0.807E-01  0.435E-01  0.187E-01  0.185E-01
  -0.998  0.403E-01  0.211E-01  0.969E-02  0.958E-02
  -0.898  0.167E-01  0.820E-02  0.426E-02  0.421E-02
  -0.798  0.564E-02  0.256E-02  0.155E-02  0.153E-02
  -0.698  0.154E-02  0.636E-03  0.455E-03  0.450E-03
  -0.598  0.338E-03  0.126E-03  0.107E-03  0.106E-03
  -0.498  0.591E-04  0.199E-04  0.197E-04  0.195E-04
  -0.398  0.816E-05  0.248E-05  0.285E-05  0.282E-05
  -0.298  0.884E-06  0.245E-06  0.321E-06  0.318E-06
  -0.198  0.765E-07  0.194E-07  0.287E-07  0.284E-07
  -0.098  0.364E-07  0.821E-08  0.141E-07  0.141E-07
   0.002  0.451E-06  0.996E-07  0.175E-06  0.176E-06
   0.102  0.498E-05  0.109E-05  0.195E-05  0.195E-05
   0.202  0.428E-04  0.928E-05  0.168E-04  0.168E-04
   0.302  0.286E-03  0.617E-04  0.112E-03  0.112E-03
   0.402  0.150E-02  0.323E-03  0.586E-03  0.586E-03
   0.502  0.616E-02  0.134E-02  0.241E-02  0.241E-02
   0.602  0.202E-01  0.444E-02  0.786E-02  0.785E-02
   0.702  0.530E-01  0.120E-01  0.205E-01  0.205E-01
   0.802  0.114E+00  0.266E-01  0.437E-01  0.436E-01
   0.902  0.203E+00  0.496E-01  0.769E-01  0.768E-01
   1.002  0.308E+00  0.792E-01  0.114E+00  0.114E+00
   1.102  0.406E+00  0.110E+00  0.148E+00  0.148E+00
   1.202  0.480E+00  0.133E+00  0.173E+00  0.173E+00
   1.302  0.528E+00  0.144E+00  0.192E+00  0.192E+00
   1.402  0.569E+00  0.146E+00  0.211E+00  0.211E+00
   1.502  0.616E+00  0.145E+00  0.235E+00  0.236E+00
   1.602  0.667E+00  0.148E+00  0.260E+00  0.260E+00
   1.702  0.700E+00  0.152E+00  0.273E+00  0.274E+00
   1.802  0.691E+00  0.154E+00  0.268E+00  0.269E+00
   1.902  0.635E+00  0.148E+00  0.242E+00  0.245E+00
   2.002  0.539E+00  0.131E+00  0.202E+00  0.205E+00
   2.102  0.415E+00  0.104E+00  0.154E+00  0.157E+00
   2.202  0.282E+00  0.721E-01  0.103E+00  0.107E+00
   2.302  0.164E+00  0.421E-01  0.596E-01  0.625E-01
   2.402  0.799E-01  0.203E-01  0.287E-01  0.308E-01
   2.502  0.319E-01  0.801E-02  0.114E-01  0.125E-01
   2.602  0.104E-01  0.255E-02  0.366E-02  0.418E-02
   2.702  0.274E-02  0.658E-03  0.950E-03  0.113E-02
   2.802  0.583E-03  0.137E-03  0.197E-03  0.248E-03
   2.902  0.995E-04  0.232E-04  0.327E-04  0.436E-04
   3.002  0.136E-04  0.315E-05  0.432E-05  0.613E-05
   3.102  0.148E-05  0.345E-06  0.452E-06  0.685E-06
   3.202  0.128E-06  0.302E-07  0.373E-07  0.603E-07
