#  E (eV)   dos(E)     Int dos(E) EFermi =    0.000 eV
 -15.984  0.5965E-04  0.5965E-05
 -15.884  0.3183E-02  0.3243E-03
 -15.784  0.5979E-01  0.6304E-02
 -15.684  0.4064E+00  0.4694E-01
 -15.584  0.1066E+01  0.1535E+00
 -15.484  0.1268E+01  0.2803E+00
 -15.384  0.9799E+00  0.3783E+00
 -15.284  0.7513E+00  0.4534E+00
 -15.184  0.6399E+00  0.5174E+00
 -15.084  0.5756E+00  0.5750E+00
 -14.984  0.5326E+00  0.6282E+00
 -14.884  0.5020E+00  0.6784E+00
 -14.784  0.4796E+00  0.7264E+00
 -14.684  0.4647E+00  0.7729E+00
 -14.584  0.4887E+00  0.8217E+00
 -14.484  0.7773E+00  0.8995E+00
 -14.384  0.1575E+01  0.1057E+01
 -14.284  0.2098E+01  0.1267E+01
 -14.184  0.1847E+01  0.1452E+01
 -14.084  0.1527E+01  0.1604E+01
 -13.984  0.1384E+01  0.1743E+01
 -13.884  0.1334E+01  0.1876E+01
 -13.784  0.1350E+01  0.2011E+01
 -13.684  0.1509E+01  0.2162E+01
 -13.584  0.1961E+01  0.2358E+01
 -13.484  0.2428E+01  0.2601E+01
 -13.384  0.2612E+01  0.2862E+01
 -13.284  0.2897E+01  0.3152E+01
 -13.184  0.2950E+01  0.3447E+01
 -13.084  0.2518E+01  0.3698E+01
 -12.984  0.1894E+01  0.3888E+01
 -12.884  0.9107E+00  0.3979E+01
 -12.784  0.1947E+00  0.3998E+01
 -12.684  0.1583E-01  0.4000E+01
 -12.584  0.4628E-03  0.4000E+01
 -12.484  0.4749E-05  0.4000E+01
 -12.384  0.1691E-07  0.4000E+01
 -12.284  0.2074E-10  0.4000E+01
 -12.184  0.8734E-14  0.4000E+01
 -12.084  0.1259E-17  0.4000E+01
 -11.984  0.6203E-22  0.4000E+01
 -11.884  0.1043E-26  0.4000E+01
 -11.784  0.5979E-32  0.4000E+01
 -11.684  0.1168E-37  0.4000E+01
 -11.584  0.7767E-44  0.4000E+01
 -11.484  0.1758E-50  0.4000E+01
 -11.384  0.1354E-57  0.4000E+01
 -11.284  0.3549E-65  0.4000E+01
 -11.184  0.3162E-73  0.4000E+01
 -11.084  0.9696E-82  0.4000E+01
 -10.984  0.1148E-83  0.4000E+01
 -10.884  0.1148E-83  0.4000E+01
 -10.784  0.1148E-83  0.4000E+01
 -10.684  0.1148E-83  0.4000E+01
 -10.584  0.1148E-83  0.4000E+01
 -10.484  0.1148E-83  0.4000E+01
 -10.384  0.1148E-83  0.4000E+01
 -10.284  0.1148E-83  0.4000E+01
 -10.184  0.1148E-83  0.4000E+01
 -10.084  0.1148E-83  0.4000E+01
  -9.984  0.1148E-83  0.4000E+01
  -9.884  0.1148E-83  0.4000E+01
  -9.784  0.1148E-83  0.4000E+01
  -9.684  0.1148E-83  0.4000E+01
  -9.584  0.1148E-83  0.4000E+01
  -9.484  0.1148E-83  0.4000E+01
  -9.384  0.1148E-83  0.4000E+01
  -9.284  0.1148E-83  0.4000E+01
  -9.184  0.1157E-83  0.4000E+01
  -9.084  0.5060E-77  0.4000E+01
  -8.984  0.8994E-69  0.4000E+01
  -8.884  0.5436E-61  0.4000E+01
  -8.784  0.1118E-53  0.4000E+01
  -8.684  0.7816E-47  0.4000E+01
  -8.584  0.1860E-40  0.4000E+01
  -8.484  0.1507E-34  0.4000E+01
  -8.384  0.4160E-29  0.4000E+01
  -8.284  0.3913E-24  0.4000E+01
  -8.184  0.1255E-19  0.4000E+01
  -8.084  0.1375E-15  0.4000E+01
  -7.984  0.5151E-12  0.4000E+01
  -7.884  0.6612E-09  0.4000E+01
  -7.784  0.2918E-06  0.4000E+01
  -7.684  0.4447E-04  0.4000E+01
  -7.584  0.2360E-02  0.4000E+01
  -7.484  0.4427E-01  0.4005E+01
  -7.384  0.3026E+00  0.4035E+01
  -7.284  0.8161E+00  0.4117E+01
  -7.184  0.1131E+01  0.4230E+01
  -7.084  0.1458E+01  0.4375E+01
  -6.984  0.1952E+01  0.4571E+01
  -6.884  0.2251E+01  0.4796E+01
  -6.784  0.2507E+01  0.5046E+01
  -6.684  0.2704E+01  0.5317E+01
  -6.584  0.3128E+01  0.5630E+01
  -6.484  0.3512E+01  0.5981E+01
  -6.384  0.3320E+01  0.6313E+01
  -6.284  0.2299E+01  0.6543E+01
  -6.184  0.1318E+01  0.6675E+01
  -6.084  0.9561E+00  0.6770E+01
  -5.984  0.7760E+00  0.6848E+01
  -5.884  0.5409E+00  0.6902E+01
  -5.784  0.4444E+00  0.6946E+01
  -5.684  0.5730E+00  0.7004E+01
  -5.584  0.8308E+00  0.7087E+01
  -5.484  0.1404E+01  0.7227E+01
  -5.384  0.2377E+01  0.7465E+01
  -5.284  0.2704E+01  0.7735E+01
  -5.184  0.2138E+01  0.7949E+01
  -5.084  0.1751E+01  0.8124E+01
  -4.984  0.1923E+01  0.8316E+01
  -4.884  0.2289E+01  0.8545E+01
  -4.784  0.2610E+01  0.8806E+01
  -4.684  0.2658E+01  0.9072E+01
  -4.584  0.2777E+01  0.9350E+01
  -4.484  0.3342E+01  0.9684E+01
  -4.384  0.3936E+01  0.1008E+02
  -4.284  0.3353E+01  0.1041E+02
  -4.184  0.2272E+01  0.1064E+02
  -4.084  0.1804E+01  0.1082E+02
  -3.984  0.1779E+01  0.1100E+02
  -3.884  0.2115E+01  0.1121E+02
  -3.784  0.2778E+01  0.1149E+02
  -3.684  0.2872E+01  0.1178E+02
  -3.584  0.2319E+01  0.1201E+02
  -3.484  0.2043E+01  0.1221E+02
  -3.384  0.2335E+01  0.1244E+02
  -3.284  0.3101E+01  0.1275E+02
  -3.184  0.3980E+01  0.1315E+02
  -3.084  0.4169E+01  0.1357E+02
  -2.984  0.3013E+01  0.1387E+02
  -2.884  0.1992E+01  0.1407E+02
  -2.784  0.1808E+01  0.1425E+02
  -2.684  0.2116E+01  0.1446E+02
  -2.584  0.2541E+01  0.1472E+02
  -2.484  0.2460E+01  0.1496E+02
  -2.384  0.2352E+01  0.1520E+02
  -2.284  0.2804E+01  0.1548E+02
  -2.184  0.3245E+01  0.1580E+02
  -2.084  0.3075E+01  0.1611E+02
  -1.984  0.2497E+01  0.1636E+02
  -1.884  0.2025E+01  0.1656E+02
  -1.784  0.1611E+01  0.1672E+02
  -1.684  0.1429E+01  0.1687E+02
  -1.584  0.1514E+01  0.1702E+02
  -1.484  0.1767E+01  0.1719E+02
  -1.384  0.2284E+01  0.1742E+02
  -1.284  0.2656E+01  0.1769E+02
  -1.184  0.1976E+01  0.1789E+02
  -1.084  0.8837E+00  0.1797E+02
  -0.984  0.2259E+00  0.1800E+02
  -0.884  0.2646E-01  0.1800E+02
  -0.784  0.1194E-02  0.1800E+02
  -0.684  0.1933E-04  0.1800E+02
  -0.584  0.1094E-06  0.1800E+02
  -0.484  0.2139E-09  0.1800E+02
  -0.384  0.1438E-12  0.1800E+02
  -0.284  0.3315E-16  0.1800E+02
  -0.184  0.2612E-20  0.1800E+02
  -0.084  0.2374E-22  0.1800E+02
   0.016  0.5029E-18  0.1800E+02
   0.116  0.3673E-14  0.1800E+02
   0.216  0.9251E-11  0.1800E+02
   0.316  0.8064E-08  0.1800E+02
   0.416  0.2445E-05  0.1800E+02
   0.516  0.2598E-03  0.1800E+02
   0.616  0.9780E-02  0.1800E+02
   0.716  0.1331E+00  0.1801E+02
   0.816  0.6820E+00  0.1808E+02
   0.916  0.1454E+01  0.1823E+02
   1.016  0.1709E+01  0.1840E+02
   1.116  0.1893E+01  0.1859E+02
   1.216  0.2226E+01  0.1881E+02
   1.316  0.2335E+01  0.1904E+02
   1.416  0.2778E+01  0.1932E+02
   1.516  0.3482E+01  0.1967E+02
   1.616  0.3883E+01  0.2006E+02
   1.716  0.4051E+01  0.2046E+02
   1.816  0.4121E+01  0.2088E+02
   1.916  0.4581E+01  0.2133E+02
   2.016  0.5484E+01  0.2188E+02
   2.116  0.5713E+01  0.2245E+02
   2.216  0.4925E+01  0.2295E+02
   2.316  0.3507E+01  0.2330E+02
   2.416  0.2105E+01  0.2351E+02
   2.516  0.1490E+01  0.2366E+02
   2.616  0.1405E+01  0.2380E+02
   2.716  0.1494E+01  0.2395E+02
   2.816  0.1732E+01  0.2412E+02
   2.916  0.1972E+01  0.2432E+02
   3.016  0.1829E+01  0.2450E+02
   3.116  0.1343E+01  0.2463E+02
   3.216  0.9665E+00  0.2473E+02
   3.316  0.8731E+00  0.2482E+02
   3.416  0.9685E+00  0.2491E+02
   3.516  0.1127E+01  0.2503E+02
   3.616  0.1396E+01  0.2517E+02
   3.716  0.1553E+01  0.2532E+02
   3.816  0.1182E+01  0.2544E+02
   3.916  0.7506E+00  0.2552E+02
   4.016  0.6187E+00  0.2558E+02
   4.116  0.5807E+00  0.2564E+02
   4.216  0.5680E+00  0.2569E+02
   4.316  0.7147E+00  0.2576E+02
   4.416  0.1234E+01  0.2589E+02
   4.516  0.1849E+01  0.2607E+02
   4.616  0.2188E+01  0.2629E+02
   4.716  0.2128E+01  0.2650E+02
   4.816  0.1659E+01  0.2667E+02
   4.916  0.1268E+01  0.2680E+02
   5.016  0.1160E+01  0.2691E+02
   5.116  0.1388E+01  0.2705E+02
   5.216  0.1741E+01  0.2722E+02
   5.316  0.1940E+01  0.2742E+02
   5.416  0.2029E+01  0.2762E+02
   5.516  0.1885E+01  0.2781E+02
   5.616  0.1811E+01  0.2799E+02
   5.716  0.2101E+01  0.2820E+02
   5.816  0.2360E+01  0.2844E+02
   5.916  0.2188E+01  0.2866E+02
   6.016  0.1971E+01  0.2885E+02
   6.116  0.2030E+01  0.2906E+02
   6.216  0.2346E+01  0.2929E+02
   6.316  0.2435E+01  0.2953E+02
   6.416  0.2213E+01  0.2976E+02
   6.516  0.2141E+01  0.2997E+02
   6.616  0.2233E+01  0.3019E+02
   6.716  0.2349E+01  0.3043E+02
   6.816  0.2426E+01  0.3067E+02
   6.916  0.2580E+01  0.3093E+02
   7.016  0.2759E+01  0.3120E+02
   7.116  0.2502E+01  0.3145E+02
   7.216  0.2160E+01  0.3167E+02
   7.316  0.2161E+01  0.3189E+02
   7.416  0.2331E+01  0.3212E+02
   7.516  0.2627E+01  0.3238E+02
   7.616  0.2873E+01  0.3267E+02
   7.716  0.2730E+01  0.3294E+02
   7.816  0.2132E+01  0.3316E+02
   7.916  0.1643E+01  0.3332E+02
   8.016  0.1621E+01  0.3348E+02
   8.116  0.2126E+01  0.3370E+02
   8.216  0.3484E+01  0.3404E+02
   8.316  0.4747E+01  0.3452E+02
   8.416  0.4683E+01  0.3499E+02
   8.516  0.3880E+01  0.3537E+02
   8.616  0.3436E+01  0.3572E+02
   8.716  0.3419E+01  0.3606E+02
   8.816  0.3393E+01  0.3640E+02
   8.916  0.3085E+01  0.3671E+02
   9.016  0.2795E+01  0.3699E+02
   9.116  0.2816E+01  0.3727E+02
   9.216  0.3419E+01  0.3761E+02
   9.316  0.3672E+01  0.3798E+02
   9.416  0.3337E+01  0.3831E+02
   9.516  0.3203E+01  0.3863E+02
   9.616  0.3107E+01  0.3894E+02
   9.716  0.3048E+01  0.3925E+02
   9.816  0.3201E+01  0.3957E+02
   9.916  0.3002E+01  0.3987E+02
  10.016  0.2455E+01  0.4011E+02
  10.116  0.2371E+01  0.4035E+02
  10.216  0.2861E+01  0.4064E+02
  10.316  0.3931E+01  0.4103E+02
  10.416  0.5365E+01  0.4157E+02
  10.516  0.5931E+01  0.4216E+02
  10.616  0.4979E+01  0.4266E+02
  10.716  0.4040E+01  0.4306E+02
  10.816  0.3689E+01  0.4343E+02
  10.916  0.3811E+01  0.4381E+02
  11.016  0.4331E+01  0.4424E+02
  11.116  0.4878E+01  0.4473E+02
  11.216  0.4823E+01  0.4521E+02
  11.316  0.4591E+01  0.4567E+02
  11.416  0.4117E+01  0.4609E+02
  11.516  0.3438E+01  0.4643E+02
  11.616  0.3442E+01  0.4677E+02
  11.716  0.3905E+01  0.4716E+02
  11.816  0.4860E+01  0.4765E+02
  11.916  0.6037E+01  0.4825E+02
  12.016  0.6715E+01  0.4892E+02
  12.116  0.7266E+01  0.4965E+02
  12.216  0.6453E+01  0.5030E+02
  12.316  0.4466E+01  0.5074E+02
  12.416  0.3193E+01  0.5106E+02
  12.516  0.3019E+01  0.5136E+02
  12.616  0.3545E+01  0.5172E+02
  12.716  0.4504E+01  0.5217E+02
  12.816  0.4990E+01  0.5267E+02
  12.916  0.4335E+01  0.5310E+02
  13.016  0.3219E+01  0.5342E+02
  13.116  0.2596E+01  0.5368E+02
  13.216  0.2776E+01  0.5396E+02
  13.316  0.3299E+01  0.5429E+02
  13.416  0.3495E+01  0.5464E+02
  13.516  0.3479E+01  0.5499E+02
  13.616  0.3391E+01  0.5533E+02
  13.716  0.3446E+01  0.5567E+02
  13.816  0.3506E+01  0.5602E+02
  13.916  0.3093E+01  0.5633E+02
  14.016  0.2708E+01  0.5660E+02
  14.116  0.3005E+01  0.5690E+02
  14.216  0.3355E+01  0.5724E+02
  14.316  0.3210E+01  0.5756E+02
  14.416  0.2960E+01  0.5786E+02
  14.516  0.2997E+01  0.5816E+02
  14.616  0.3338E+01  0.5849E+02
  14.716  0.3529E+01  0.5884E+02
  14.816  0.3739E+01  0.5922E+02
  14.916  0.4092E+01  0.5963E+02
  15.016  0.3970E+01  0.6002E+02
  15.116  0.3836E+01  0.6041E+02
  15.216  0.4178E+01  0.6082E+02
  15.316  0.4071E+01  0.6123E+02
  15.416  0.3952E+01  0.6163E+02
  15.516  0.4074E+01  0.6203E+02
  15.616  0.4407E+01  0.6247E+02
  15.716  0.5269E+01  0.6300E+02
  15.816  0.6132E+01  0.6361E+02
  15.916  0.6535E+01  0.6427E+02
  16.016  0.5810E+01  0.6485E+02
  16.116  0.4787E+01  0.6533E+02
  16.216  0.4616E+01  0.6579E+02
  16.316  0.4944E+01  0.6628E+02
  16.416  0.4694E+01  0.6675E+02
  16.516  0.3933E+01  0.6715E+02
  16.616  0.3817E+01  0.6753E+02
  16.716  0.3873E+01  0.6792E+02
  16.816  0.3509E+01  0.6827E+02
  16.916  0.3271E+01  0.6859E+02
  17.016  0.3230E+01  0.6892E+02
  17.116  0.3360E+01  0.6925E+02
  17.216  0.3586E+01  0.6961E+02
  17.316  0.3458E+01  0.6996E+02
  17.416  0.3031E+01  0.7026E+02
  17.516  0.3391E+01  0.7060E+02
  17.616  0.4267E+01  0.7103E+02
  17.716  0.4586E+01  0.7148E+02
  17.816  0.4200E+01  0.7190E+02
  17.916  0.3555E+01  0.7226E+02
  18.016  0.3593E+01  0.7262E+02
  18.116  0.4028E+01  0.7302E+02
  18.216  0.3600E+01  0.7338E+02
  18.316  0.2925E+01  0.7367E+02
  18.416  0.2838E+01  0.7396E+02
  18.516  0.2702E+01  0.7423E+02
  18.616  0.2468E+01  0.7448E+02
  18.716  0.2547E+01  0.7473E+02
  18.816  0.2955E+01  0.7503E+02
  18.916  0.3599E+01  0.7539E+02
  19.016  0.4070E+01  0.7579E+02
  19.116  0.4456E+01  0.7624E+02
  19.216  0.5399E+01  0.7678E+02
  19.316  0.5884E+01  0.7737E+02
  19.416  0.5193E+01  0.7789E+02
  19.516  0.4214E+01  0.7831E+02
  19.616  0.3425E+01  0.7865E+02
  19.716  0.2956E+01  0.7894E+02
  19.816  0.2781E+01  0.7922E+02
  19.916  0.2796E+01  0.7950E+02
  20.016  0.2979E+01  0.7980E+02
  20.116  0.3007E+01  0.8010E+02
  20.216  0.3329E+01  0.8043E+02
  20.316  0.3906E+01  0.8082E+02
  20.416  0.4345E+01  0.8126E+02
  20.516  0.4825E+01  0.8174E+02
  20.616  0.5270E+01  0.8227E+02
  20.716  0.5442E+01  0.8281E+02
  20.816  0.5139E+01  0.8333E+02
  20.916  0.4858E+01  0.8381E+02
  21.016  0.4880E+01  0.8430E+02
  21.116  0.5481E+01  0.8485E+02
  21.216  0.5774E+01  0.8543E+02
  21.316  0.5408E+01  0.8597E+02
  21.416  0.5082E+01  0.8648E+02
  21.516  0.4511E+01  0.8693E+02
  21.616  0.4509E+01  0.8738E+02
  21.716  0.5257E+01  0.8790E+02
  21.816  0.5399E+01  0.8844E+02
  21.916  0.4825E+01  0.8893E+02
  22.016  0.4166E+01  0.8934E+02
  22.116  0.3859E+01  0.8973E+02
  22.216  0.4115E+01  0.9014E+02
  22.316  0.4420E+01  0.9058E+02
  22.416  0.4623E+01  0.9104E+02
  22.516  0.5178E+01  0.9156E+02
  22.616  0.5731E+01  0.9213E+02
  22.716  0.6248E+01  0.9276E+02
  22.816  0.7469E+01  0.9351E+02
  22.916  0.7518E+01  0.9426E+02
  23.016  0.5906E+01  0.9485E+02
  23.116  0.4505E+01  0.9530E+02
  23.216  0.3930E+01  0.9569E+02
  23.316  0.3951E+01  0.9609E+02
  23.416  0.4133E+01  0.9650E+02
  23.516  0.4428E+01  0.9694E+02
  23.616  0.4849E+01  0.9743E+02
  23.716  0.5297E+01  0.9796E+02
  23.816  0.5485E+01  0.9851E+02
  23.916  0.5121E+01  0.9902E+02
  24.016  0.4560E+01  0.9947E+02
  24.116  0.4414E+01  0.9992E+02
  24.216  0.4360E+01  0.1004E+03
  24.316  0.4813E+01  0.1008E+03
  24.416  0.5551E+01  0.1014E+03
  24.516  0.5692E+01  0.1020E+03
  24.616  0.5826E+01  0.1025E+03
  24.716  0.5908E+01  0.1031E+03
  24.816  0.5657E+01  0.1037E+03
  24.916  0.5244E+01  0.1042E+03
  25.016  0.5425E+01  0.1048E+03
  25.116  0.6751E+01  0.1054E+03
  25.216  0.7525E+01  0.1062E+03
  25.316  0.7125E+01  0.1069E+03
  25.416  0.6093E+01  0.1075E+03
  25.516  0.4885E+01  0.1080E+03
  25.616  0.4660E+01  0.1085E+03
  25.716  0.5259E+01  0.1090E+03
  25.816  0.6116E+01  0.1096E+03
  25.916  0.7214E+01  0.1103E+03
  26.016  0.7255E+01  0.1111E+03
  26.116  0.6118E+01  0.1117E+03
  26.216  0.5249E+01  0.1122E+03
  26.316  0.5168E+01  0.1127E+03
  26.416  0.5673E+01  0.1133E+03
  26.516  0.6052E+01  0.1139E+03
  26.616  0.6093E+01  0.1145E+03
  26.716  0.6157E+01  0.1151E+03
  26.816  0.6172E+01  0.1157E+03
  26.916  0.6599E+01  0.1164E+03
  27.016  0.7472E+01  0.1171E+03
  27.116  0.8503E+01  0.1180E+03
  27.216  0.9025E+01  0.1189E+03
  27.316  0.8077E+01  0.1197E+03
  27.416  0.6679E+01  0.1204E+03
  27.516  0.5716E+01  0.1209E+03
  27.616  0.5298E+01  0.1215E+03
  27.716  0.5541E+01  0.1220E+03
  27.816  0.6379E+01  0.1226E+03
  27.916  0.7105E+01  0.1234E+03
  28.016  0.6427E+01  0.1240E+03
  28.116  0.5470E+01  0.1245E+03
  28.216  0.5371E+01  0.1251E+03
  28.316  0.5615E+01  0.1256E+03
  28.416  0.6304E+01  0.1263E+03
  28.516  0.6577E+01  0.1269E+03
  28.616  0.6015E+01  0.1275E+03
  28.716  0.5831E+01  0.1281E+03
  28.816  0.5818E+01  0.1287E+03
  28.916  0.5777E+01  0.1293E+03
  29.016  0.5480E+01  0.1298E+03
  29.116  0.5002E+01  0.1303E+03
  29.216  0.5042E+01  0.1308E+03
  29.316  0.5362E+01  0.1314E+03
  29.416  0.5475E+01  0.1319E+03
  29.516  0.5984E+01  0.1325E+03
  29.616  0.6825E+01  0.1332E+03
  29.716  0.7294E+01  0.1339E+03
  29.816  0.7094E+01  0.1346E+03
  29.916  0.6819E+01  0.1353E+03
  30.016  0.6693E+01  0.1360E+03
  30.116  0.6871E+01  0.1367E+03
  30.216  0.6723E+01  0.1373E+03
  30.316  0.5917E+01  0.1379E+03
  30.416  0.5564E+01  0.1385E+03
  30.516  0.6040E+01  0.1391E+03
  30.616  0.6299E+01  0.1397E+03
  30.716  0.6358E+01  0.1404E+03
  30.816  0.6956E+01  0.1411E+03
  30.916  0.7623E+01  0.1418E+03
  31.016  0.7781E+01  0.1426E+03
  31.116  0.7306E+01  0.1433E+03
  31.216  0.6531E+01  0.1440E+03
  31.316  0.6096E+01  0.1446E+03
  31.416  0.5999E+01  0.1452E+03
  31.516  0.6025E+01  0.1458E+03
  31.616  0.6172E+01  0.1464E+03
  31.716  0.6513E+01  0.1471E+03
  31.816  0.6418E+01  0.1477E+03
  31.916  0.6063E+01  0.1483E+03
  32.016  0.6361E+01  0.1489E+03
  32.116  0.6439E+01  0.1496E+03
  32.216  0.6396E+01  0.1502E+03
  32.316  0.7102E+01  0.1509E+03
  32.416  0.6421E+01  0.1516E+03
  32.516  0.4966E+01  0.1521E+03
  32.616  0.4442E+01  0.1525E+03
  32.716  0.4986E+01  0.1530E+03
  32.816  0.5805E+01  0.1536E+03
  32.916  0.6339E+01  0.1542E+03
  33.016  0.6719E+01  0.1549E+03
  33.116  0.6008E+01  0.1555E+03
  33.216  0.4967E+01  0.1560E+03
  33.316  0.4928E+01  0.1565E+03
  33.416  0.5955E+01  0.1571E+03
  33.516  0.7152E+01  0.1578E+03
  33.616  0.7527E+01  0.1586E+03
  33.716  0.7090E+01  0.1593E+03
  33.816  0.6546E+01  0.1599E+03
  33.916  0.6352E+01  0.1606E+03
  34.016  0.6421E+01  0.1612E+03
  34.116  0.6587E+01  0.1619E+03
  34.216  0.6712E+01  0.1625E+03
  34.316  0.6685E+01  0.1632E+03
  34.416  0.6614E+01  0.1639E+03
  34.516  0.6419E+01  0.1645E+03
  34.616  0.6411E+01  0.1651E+03
  34.716  0.6177E+01  0.1658E+03
  34.816  0.6236E+01  0.1664E+03
  34.916  0.7147E+01  0.1671E+03
  35.016  0.8075E+01  0.1679E+03
  35.116  0.8394E+01  0.1687E+03
  35.216  0.8348E+01  0.1696E+03
  35.316  0.7891E+01  0.1704E+03
  35.416  0.6819E+01  0.1711E+03
  35.516  0.5906E+01  0.1716E+03
  35.616  0.5168E+01  0.1722E+03
  35.716  0.4913E+01  0.1727E+03
  35.816  0.4619E+01  0.1731E+03
  35.916  0.4362E+01  0.1736E+03
  36.016  0.5020E+01  0.1741E+03
  36.116  0.5413E+01  0.1746E+03
  36.216  0.5618E+01  0.1752E+03
  36.316  0.6431E+01  0.1758E+03
  36.416  0.7215E+01  0.1765E+03
  36.516  0.7304E+01  0.1773E+03
  36.616  0.6978E+01  0.1780E+03
  36.716  0.6973E+01  0.1786E+03
  36.816  0.7496E+01  0.1794E+03
  36.916  0.7497E+01  0.1801E+03
  37.016  0.6747E+01  0.1808E+03
  37.116  0.6119E+01  0.1814E+03
  37.216  0.5905E+01  0.1820E+03
  37.316  0.5648E+01  0.1826E+03
  37.416  0.5891E+01  0.1832E+03
  37.516  0.7223E+01  0.1839E+03
  37.616  0.8104E+01  0.1847E+03
  37.716  0.7212E+01  0.1854E+03
  37.816  0.6298E+01  0.1861E+03
  37.916  0.5821E+01  0.1866E+03
  38.016  0.5519E+01  0.1872E+03
  38.116  0.4964E+01  0.1877E+03
  38.216  0.4329E+01  0.1881E+03
  38.316  0.4340E+01  0.1886E+03
  38.416  0.4948E+01  0.1891E+03
  38.516  0.5424E+01  0.1896E+03
  38.616  0.5191E+01  0.1901E+03
  38.716  0.4676E+01  0.1906E+03
  38.816  0.4226E+01  0.1910E+03
  38.916  0.4066E+01  0.1914E+03
  39.016  0.4148E+01  0.1918E+03
  39.116  0.4460E+01  0.1923E+03
  39.216  0.5110E+01  0.1928E+03
  39.316  0.5635E+01  0.1933E+03
  39.416  0.5299E+01  0.1939E+03
  39.516  0.4640E+01  0.1943E+03
  39.616  0.4697E+01  0.1948E+03
  39.716  0.4607E+01  0.1953E+03
  39.816  0.3855E+01  0.1957E+03
  39.916  0.3297E+01  0.1960E+03
  40.016  0.2862E+01  0.1963E+03
  40.116  0.2701E+01  0.1965E+03
  40.216  0.2747E+01  0.1968E+03
  40.316  0.2855E+01  0.1971E+03
  40.416  0.3366E+01  0.1974E+03
  40.516  0.3489E+01  0.1978E+03
  40.616  0.2865E+01  0.1981E+03
  40.716  0.2339E+01  0.1983E+03
  40.816  0.2211E+01  0.1985E+03
  40.916  0.2084E+01  0.1987E+03
  41.016  0.2110E+01  0.1989E+03
  41.116  0.2225E+01  0.1992E+03
  41.216  0.1786E+01  0.1994E+03
  41.316  0.1312E+01  0.1995E+03
  41.416  0.1219E+01  0.1996E+03
  41.516  0.1229E+01  0.1997E+03
  41.616  0.9868E+00  0.1998E+03
  41.716  0.6488E+00  0.1999E+03
  41.816  0.4889E+00  0.1999E+03
  41.916  0.3693E+00  0.2000E+03
  42.016  0.1874E+00  0.2000E+03
  42.116  0.4458E-01  0.2000E+03
  42.216  0.4133E-02  0.2000E+03
  42.316  0.1397E-03  0.2000E+03
