# E (eV)   ldos(E)   pdos(E)    pdos(E)    pdos(E)    pdos(E)    pdos(E)    pdos(E)    pdos(E)   
 -16.392  0.536E-07  0.340E-16  0.947E-10  0.951E-10  0.235E-18  0.235E-18  0.122E-13  0.534E-07
 -16.292  0.448E-06  0.284E-15  0.896E-09  0.899E-09  0.222E-17  0.223E-17  0.142E-12  0.446E-06
 -16.192  0.288E-05  0.183E-14  0.660E-08  0.663E-08  0.164E-16  0.165E-16  0.130E-11  0.286E-05
 -16.092  0.142E-04  0.904E-14  0.381E-07  0.382E-07  0.951E-16  0.953E-16  0.949E-11  0.141E-04
 -15.992  0.543E-04  0.346E-13  0.173E-06  0.174E-06  0.434E-15  0.435E-15  0.558E-10  0.539E-04
 -15.892  0.161E-03  0.102E-12  0.626E-06  0.628E-06  0.157E-14  0.158E-14  0.266E-09  0.159E-03
 -15.792  0.371E-03  0.237E-12  0.182E-05  0.182E-05  0.459E-14  0.462E-14  0.104E-08  0.367E-03
 -15.692  0.674E-03  0.439E-12  0.431E-05  0.432E-05  0.110E-13  0.111E-13  0.339E-08  0.665E-03
 -15.592  0.978E-03  0.857E-12  0.851E-05  0.852E-05  0.251E-13  0.254E-13  0.933E-08  0.961E-03
 -15.492  0.116E-02  0.668E-11  0.143E-04  0.143E-04  0.131E-12  0.132E-12  0.220E-07  0.113E-02
 -15.392  0.117E-02  0.119E-09  0.213E-04  0.212E-04  0.212E-11  0.212E-11  0.456E-07  0.112E-02
 -15.292  0.105E-02  0.181E-08  0.287E-04  0.286E-04  0.348E-10  0.349E-10  0.841E-07  0.992E-03
 -15.192  0.899E-03  0.212E-07  0.363E-04  0.360E-04  0.454E-09  0.455E-09  0.141E-06  0.826E-03
 -15.092  0.774E-03  0.191E-06  0.439E-04  0.434E-04  0.460E-08  0.461E-08  0.218E-06  0.687E-03
 -14.992  0.690E-03  0.132E-05  0.519E-04  0.510E-04  0.363E-07  0.364E-07  0.317E-06  0.585E-03
 -14.892  0.639E-03  0.700E-05  0.603E-04  0.589E-04  0.223E-06  0.225E-06  0.438E-06  0.512E-03
 -14.792  0.625E-03  0.287E-04  0.694E-04  0.673E-04  0.108E-05  0.109E-05  0.580E-06  0.457E-03
 -14.692  0.669E-03  0.913E-04  0.793E-04  0.763E-04  0.415E-05  0.419E-05  0.743E-06  0.413E-03
 -14.592  0.804E-03  0.225E-03  0.903E-04  0.860E-04  0.128E-04  0.129E-04  0.924E-06  0.375E-03
 -14.492  0.104E-02  0.437E-03  0.103E-03  0.968E-04  0.318E-04  0.323E-04  0.112E-05  0.343E-03
 -14.392  0.135E-02  0.671E-03  0.117E-03  0.109E-03  0.656E-04  0.669E-04  0.134E-05  0.315E-03
 -14.292  0.161E-02  0.833E-03  0.134E-03  0.122E-03  0.115E-03  0.118E-03  0.156E-05  0.290E-03
 -14.192  0.178E-02  0.862E-03  0.154E-03  0.138E-03  0.174E-03  0.181E-03  0.179E-05  0.267E-03
 -14.092  0.186E-02  0.778E-03  0.182E-03  0.157E-03  0.239E-03  0.251E-03  0.203E-05  0.247E-03
 -13.992  0.192E-02  0.648E-03  0.225E-03  0.184E-03  0.305E-03  0.326E-03  0.228E-05  0.230E-03
 -13.892  0.205E-02  0.528E-03  0.300E-03  0.224E-03  0.373E-03  0.407E-03  0.256E-05  0.218E-03
 -13.792  0.232E-02  0.436E-03  0.426E-03  0.289E-03  0.448E-03  0.503E-03  0.292E-05  0.212E-03
 -13.692  0.275E-02  0.370E-03  0.611E-03  0.387E-03  0.537E-03  0.632E-03  0.341E-05  0.212E-03
 -13.592  0.336E-02  0.321E-03  0.824E-03  0.513E-03  0.660E-03  0.833E-03  0.398E-05  0.210E-03
 -13.492  0.412E-02  0.285E-03  0.993E-03  0.638E-03  0.846E-03  0.116E-02  0.441E-05  0.193E-03
 -13.392  0.496E-02  0.259E-03  0.104E-02  0.712E-03  0.113E-02  0.166E-02  0.437E-05  0.158E-03
 -13.292  0.574E-02  0.235E-03  0.929E-03  0.687E-03  0.150E-02  0.228E-02  0.370E-05  0.110E-03
 -13.192  0.618E-02  0.205E-03  0.700E-03  0.556E-03  0.186E-02  0.279E-02  0.258E-05  0.645E-04
 -13.092  0.598E-02  0.162E-03  0.438E-03  0.367E-03  0.204E-02  0.294E-02  0.147E-05  0.312E-04
 -12.992  0.503E-02  0.110E-03  0.222E-03  0.195E-03  0.190E-02  0.259E-02  0.667E-06  0.125E-04
 -12.892  0.358E-02  0.629E-04  0.902E-04  0.814E-04  0.146E-02  0.188E-02  0.241E-06  0.405E-05
 -12.792  0.210E-02  0.294E-04  0.289E-04  0.266E-04  0.905E-03  0.111E-02  0.686E-07  0.106E-05
 -12.692  0.992E-03  0.111E-04  0.724E-05  0.676E-05  0.445E-03  0.522E-03  0.153E-07  0.223E-06
 -12.592  0.374E-03  0.340E-05  0.141E-05  0.133E-05  0.172E-03  0.195E-03  0.268E-08  0.372E-07
 -12.492  0.111E-03  0.827E-06  0.212E-06  0.201E-06  0.519E-04  0.575E-04  0.364E-09  0.489E-08
 -12.392  0.256E-04  0.160E-06  0.245E-07  0.235E-07  0.122E-04  0.132E-04  0.383E-10  0.502E-09
 -12.292  0.459E-05  0.244E-07  0.218E-08  0.210E-08  0.220E-05  0.236E-05  0.313E-11  0.401E-10
 -12.192  0.636E-06  0.293E-08  0.149E-09  0.144E-09  0.307E-06  0.326E-06  0.197E-12  0.249E-11
 -12.092  0.678E-07  0.275E-09  0.784E-11  0.760E-11  0.329E-07  0.347E-07  0.958E-14  0.119E-12
 -11.992  0.557E-08  0.201E-10  0.315E-12  0.306E-12  0.271E-08  0.284E-08  0.359E-15  0.441E-14
 -11.892  0.351E-09  0.114E-11  0.969E-14  0.944E-14  0.171E-09  0.178E-09  0.101E-16  0.122E-15
 -11.792  0.169E-10  0.503E-13  0.198E-15  0.196E-15  0.828E-11  0.860E-11  0.118E-18  0.134E-17
 -11.692  0.627E-12  0.170E-14  0.108E-20  0.105E-20  0.307E-12  0.318E-12  0.190E-23  0.166E-22
 -11.592  0.176E-13  0.412E-16  0.305E-22  0.298E-22  0.866E-14  0.891E-14  0.494E-25  0.419E-24
 -11.492  0.000E+00  0.000E+00  0.000E+00  0.000E+00  0.000E+00  0.000E+00  0.000E+00  0.000E+00
 -11.392  0.000E+00  0.000E+00  0.000E+00  0.000E+00  0.000E+00  0.000E+00  0.000E+00  0.000E+00
 -11.292  0.000E+00  0.000E+00  0.000E+00  0.000E+00  0.000E+00  0.000E+00  0.000E+00  0.000E+00
 -11.192  0.000E+00  0.000E+00  0.000E+00  0.000E+00  0.000E+00  0.000E+00  0.000E+00  0.000E+00
 -11.092  0.000E+00  0.000E+00  0.000E+00  0.000E+00  0.000E+00  0.000E+00  0.000E+00  0.000E+00
 -10.992  0.000E+00  0.000E+00  0.000E+00  0.000E+00  0.000E+00  0.000E+00  0.000E+00  0.000E+00
 -10.892  0.000E+00  0.000E+00  0.000E+00  0.000E+00  0.000E+00  0.000E+00  0.000E+00  0.000E+00
 -10.792  0.000E+00  0.000E+00  0.000E+00  0.000E+00  0.000E+00  0.000E+00  0.000E+00  0.000E+00
 -10.692  0.000E+00  0.000E+00  0.000E+00  0.000E+00  0.000E+00  0.000E+00  0.000E+00  0.000E+00
 -10.592  0.000E+00  0.000E+00  0.000E+00  0.000E+00  0.000E+00  0.000E+00  0.000E+00  0.000E+00
 -10.492  0.000E+00  0.000E+00  0.000E+00  0.000E+00  0.000E+00  0.000E+00  0.000E+00  0.000E+00
 -10.392  0.000E+00  0.000E+00  0.000E+00  0.000E+00  0.000E+00  0.000E+00  0.000E+00  0.000E+00
 -10.292  0.000E+00  0.000E+00  0.000E+00  0.000E+00  0.000E+00  0.000E+00  0.000E+00  0.000E+00
 -10.192  0.000E+00  0.000E+00  0.000E+00  0.000E+00  0.000E+00  0.000E+00  0.000E+00  0.000E+00
 -10.092  0.000E+00  0.000E+00  0.000E+00  0.000E+00  0.000E+00  0.000E+00  0.000E+00  0.000E+00
  -9.992  0.000E+00  0.000E+00  0.000E+00  0.000E+00  0.000E+00  0.000E+00  0.000E+00  0.000E+00
  -9.892  0.000E+00  0.000E+00  0.000E+00  0.000E+00  0.000E+00  0.000E+00  0.000E+00  0.000E+00
  -9.792  0.000E+00  0.000E+00  0.000E+00  0.000E+00  0.000E+00  0.000E+00  0.000E+00  0.000E+00
  -9.692  0.000E+00  0.000E+00  0.000E+00  0.000E+00  0.000E+00  0.000E+00  0.000E+00  0.000E+00
  -9.592  0.000E+00  0.000E+00  0.000E+00  0.000E+00  0.000E+00  0.000E+00  0.000E+00  0.000E+00
  -9.492  0.000E+00  0.000E+00  0.000E+00  0.000E+00  0.000E+00  0.000E+00  0.000E+00  0.000E+00
  -9.392  0.000E+00  0.000E+00  0.000E+00  0.000E+00  0.000E+00  0.000E+00  0.000E+00  0.000E+00
  -9.292  0.000E+00  0.000E+00  0.000E+00  0.000E+00  0.000E+00  0.000E+00  0.000E+00  0.000E+00
  -9.192  0.000E+00  0.000E+00  0.000E+00  0.000E+00  0.000E+00  0.000E+00  0.000E+00  0.000E+00
  -9.092  0.000E+00  0.000E+00  0.000E+00  0.000E+00  0.000E+00  0.000E+00  0.000E+00  0.000E+00
  -8.992  0.000E+00  0.000E+00  0.000E+00  0.000E+00  0.000E+00  0.000E+00  0.000E+00  0.000E+00
  -8.892  0.000E+00  0.000E+00  0.000E+00  0.000E+00  0.000E+00  0.000E+00  0.000E+00  0.000E+00
  -8.792  0.000E+00  0.000E+00  0.000E+00  0.000E+00  0.000E+00  0.000E+00  0.000E+00  0.000E+00
  -8.692  0.254E-15  0.236E-25  0.172E-15  0.574E-16  0.491E-25  0.147E-24  0.108E-17  0.235E-16
  -8.592  0.113E-13  0.104E-23  0.761E-14  0.255E-14  0.221E-23  0.660E-23  0.682E-16  0.104E-14
  -8.492  0.356E-12  0.328E-22  0.241E-12  0.805E-13  0.702E-22  0.210E-21  0.234E-14  0.329E-13
  -8.392  0.862E-11  0.791E-21  0.582E-11  0.195E-11  0.170E-20  0.509E-20  0.612E-13  0.796E-12
  -8.292  0.160E-09  0.146E-19  0.108E-09  0.361E-10  0.317E-19  0.946E-19  0.123E-11  0.148E-10
  -8.192  0.227E-08  0.648E-18  0.153E-08  0.512E-09  0.365E-16  0.382E-16  0.193E-10  0.211E-09
  -8.092  0.248E-07  0.218E-16  0.166E-07  0.558E-08  0.149E-14  0.157E-14  0.232E-09  0.232E-08
  -7.992  0.208E-06  0.618E-15  0.139E-06  0.467E-07  0.446E-13  0.469E-13  0.218E-08  0.198E-07
  -7.892  0.134E-05  0.142E-13  0.896E-06  0.301E-06  0.102E-11  0.108E-11  0.159E-07  0.132E-06
  -7.792  0.673E-05  0.256E-12  0.444E-05  0.149E-05  0.182E-10  0.192E-10  0.906E-07  0.703E-06
  -7.692  0.262E-04  0.358E-11  0.170E-04  0.574E-05  0.249E-09  0.264E-09  0.407E-06  0.305E-05
  -7.592  0.805E-04  0.388E-10  0.508E-04  0.171E-04  0.264E-08  0.281E-08  0.145E-05  0.111E-04
  -7.492  0.197E-03  0.326E-09  0.118E-03  0.401E-04  0.218E-07  0.234E-07  0.414E-05  0.346E-04
  -7.392  0.395E-03  0.214E-08  0.217E-03  0.741E-04  0.140E-06  0.151E-06  0.963E-05  0.935E-04
  -7.292  0.666E-03  0.110E-07  0.320E-03  0.110E-03  0.707E-06  0.773E-06  0.186E-04  0.215E-03
  -7.192  0.978E-03  0.443E-07  0.389E-03  0.137E-03  0.282E-05  0.313E-05  0.307E-04  0.416E-03
  -7.092  0.129E-02  0.142E-06  0.406E-03  0.148E-03  0.900E-05  0.102E-04  0.452E-04  0.667E-03
  -6.992  0.155E-02  0.362E-06  0.388E-03  0.150E-03  0.233E-04  0.272E-04  0.628E-04  0.899E-03
  -6.892  0.177E-02  0.748E-06  0.370E-03  0.153E-03  0.499E-04  0.608E-04  0.868E-04  0.105E-02
  -6.792  0.200E-02  0.127E-05  0.373E-03  0.164E-03  0.908E-04  0.118E-03  0.122E-03  0.113E-02
  -6.692  0.229E-02  0.179E-05  0.396E-03  0.184E-03  0.145E-03  0.203E-03  0.167E-03  0.119E-02
  -6.592  0.261E-02  0.216E-05  0.417E-03  0.201E-03  0.206E-03  0.316E-03  0.216E-03  0.125E-02
  -6.492  0.283E-02  0.228E-05  0.407E-03  0.204E-03  0.268E-03  0.439E-03  0.259E-03  0.125E-02
  -6.392  0.280E-02  0.229E-05  0.354E-03  0.188E-03  0.318E-03  0.540E-03  0.291E-03  0.111E-02
  -6.292  0.252E-02  0.249E-05  0.273E-03  0.155E-03  0.348E-03  0.587E-03  0.316E-03  0.836E-03
  -6.192  0.210E-02  0.330E-05  0.190E-03  0.117E-03  0.359E-03  0.579E-03  0.331E-03  0.524E-03
  -6.092  0.172E-02  0.510E-05  0.126E-03  0.861E-04  0.362E-03  0.544E-03  0.324E-03  0.275E-03
  -5.992  0.146E-02  0.811E-05  0.922E-04  0.719E-04  0.369E-03  0.515E-03  0.281E-03  0.128E-03
  -5.892  0.136E-02  0.124E-04  0.991E-04  0.866E-04  0.384E-03  0.507E-03  0.211E-03  0.589E-04
  -5.792  0.142E-02  0.182E-04  0.156E-03  0.138E-03  0.406E-03  0.517E-03  0.143E-03  0.371E-04
  -5.692  0.164E-02  0.257E-04  0.268E-03  0.222E-03  0.433E-03  0.536E-03  0.108E-03  0.470E-04
  -5.592  0.201E-02  0.351E-04  0.429E-03  0.321E-03  0.464E-03  0.559E-03  0.113E-03  0.852E-04
  -5.492  0.246E-02  0.469E-04  0.622E-03  0.419E-03  0.499E-03  0.585E-03  0.146E-03  0.144E-03
  -5.392  0.293E-02  0.620E-04  0.816E-03  0.519E-03  0.538E-03  0.611E-03  0.185E-03  0.204E-03
  -5.292  0.338E-02  0.814E-04  0.970E-03  0.645E-03  0.583E-03  0.639E-03  0.221E-03  0.242E-03
  -5.192  0.382E-02  0.108E-03  0.107E-02  0.828E-03  0.636E-03  0.667E-03  0.253E-03  0.258E-03
  -5.092  0.432E-02  0.147E-03  0.114E-02  0.107E-02  0.704E-03  0.701E-03  0.289E-03  0.270E-03
  -4.992  0.491E-02  0.209E-03  0.121E-02  0.133E-02  0.801E-03  0.745E-03  0.322E-03  0.294E-03
  -4.892  0.549E-02  0.308E-03  0.127E-02  0.150E-02  0.947E-03  0.811E-03  0.333E-03  0.322E-03
  -4.792  0.589E-02  0.449E-03  0.126E-02  0.148E-02  0.115E-02  0.906E-03  0.305E-03  0.329E-03
  -4.692  0.603E-02  0.619E-03  0.114E-02  0.129E-02  0.140E-02  0.103E-02  0.249E-03  0.308E-03
  -4.592  0.600E-02  0.782E-03  0.930E-03  0.102E-02  0.165E-02  0.115E-02  0.195E-03  0.275E-03
  -4.492  0.589E-02  0.907E-03  0.715E-03  0.784E-03  0.183E-02  0.124E-02  0.165E-03  0.250E-03
  -4.392  0.576E-02  0.987E-03  0.556E-03  0.634E-03  0.190E-02  0.129E-02  0.160E-03  0.241E-03
  -4.292  0.563E-02  0.104E-02  0.466E-03  0.568E-03  0.186E-02  0.128E-02  0.171E-03  0.239E-03
  -4.192  0.551E-02  0.110E-02  0.433E-03  0.558E-03  0.175E-02  0.125E-02  0.188E-03  0.238E-03
  -4.092  0.548E-02  0.118E-02  0.446E-03  0.589E-03  0.163E-02  0.121E-02  0.212E-03  0.230E-03
  -3.992  0.560E-02  0.128E-02  0.498E-03  0.656E-03  0.154E-02  0.117E-02  0.250E-03  0.211E-03
  -3.892  0.588E-02  0.141E-02  0.577E-03  0.749E-03  0.149E-02  0.116E-02  0.317E-03  0.182E-03
  -3.792  0.627E-02  0.157E-02  0.653E-03  0.837E-03  0.148E-02  0.116E-02  0.425E-03  0.148E-03
  -3.692  0.675E-02  0.179E-02  0.691E-03  0.887E-03  0.150E-02  0.119E-02  0.580E-03  0.116E-03
  -3.592  0.742E-02  0.209E-02  0.684E-03  0.894E-03  0.158E-02  0.129E-02  0.775E-03  0.934E-04
  -3.492  0.844E-02  0.252E-02  0.659E-03  0.884E-03  0.175E-02  0.154E-02  0.100E-02  0.818E-04
  -3.392  0.989E-02  0.304E-02  0.647E-03  0.889E-03  0.200E-02  0.200E-02  0.124E-02  0.785E-04
  -3.292  0.115E-01  0.347E-02  0.647E-03  0.908E-03  0.230E-02  0.264E-02  0.144E-02  0.780E-04
  -3.192  0.126E-01  0.357E-02  0.629E-03  0.915E-03  0.255E-02  0.332E-02  0.154E-02  0.752E-04
  -3.092  0.127E-01  0.318E-02  0.565E-03  0.884E-03  0.269E-02  0.377E-02  0.149E-02  0.678E-04
  -2.992  0.118E-01  0.247E-02  0.466E-03  0.826E-03  0.274E-02  0.390E-02  0.133E-02  0.572E-04
  -2.892  0.108E-01  0.180E-02  0.369E-03  0.776E-03  0.281E-02  0.384E-02  0.116E-02  0.473E-04
  -2.792  0.105E-01  0.144E-02  0.312E-03  0.773E-03  0.301E-02  0.384E-02  0.106E-02  0.422E-04
  -2.692  0.110E-01  0.149E-02  0.308E-03  0.834E-03  0.328E-02  0.401E-02  0.106E-02  0.462E-04
  -2.592  0.120E-01  0.191E-02  0.361E-03  0.967E-03  0.342E-02  0.418E-02  0.114E-02  0.685E-04
  -2.492  0.131E-01  0.258E-02  0.482E-03  0.119E-02  0.324E-02  0.414E-02  0.129E-02  0.125E-03
  -2.392  0.139E-01  0.328E-02  0.693E-03  0.152E-02  0.279E-02  0.383E-02  0.151E-02  0.231E-03
  -2.292  0.144E-01  0.371E-02  0.996E-03  0.194E-02  0.222E-02  0.333E-02  0.179E-02  0.384E-03
  -2.192  0.143E-01  0.360E-02  0.136E-02  0.233E-02  0.167E-02  0.270E-02  0.205E-02  0.555E-03
  -2.092  0.132E-01  0.295E-02  0.170E-02  0.252E-02  0.117E-02  0.198E-02  0.220E-02  0.703E-03
  -1.992  0.114E-01  0.200E-02  0.195E-02  0.244E-02  0.734E-03  0.127E-02  0.216E-02  0.796E-03
  -1.892  0.925E-02  0.111E-02  0.208E-02  0.220E-02  0.391E-03  0.681E-03  0.197E-02  0.818E-03
  -1.792  0.759E-02  0.496E-03  0.211E-02  0.199E-02  0.171E-03  0.300E-03  0.174E-02  0.781E-03
  -1.692  0.668E-02  0.177E-03  0.211E-02  0.195E-02  0.603E-04  0.106E-03  0.155E-02  0.724E-03
  -1.592  0.643E-02  0.495E-04  0.216E-02  0.207E-02  0.168E-04  0.295E-04  0.141E-02  0.689E-03
  -1.492  0.652E-02  0.108E-04  0.227E-02  0.227E-02  0.365E-05  0.645E-05  0.127E-02  0.685E-03
  -1.392  0.659E-02  0.184E-05  0.239E-02  0.244E-02  0.617E-06  0.110E-05  0.108E-02  0.678E-03
  -1.292  0.634E-02  0.243E-06  0.242E-02  0.247E-02  0.807E-07  0.144E-06  0.831E-03  0.615E-03
  -1.192  0.555E-02  0.246E-07  0.223E-02  0.227E-02  0.815E-08  0.146E-07  0.569E-03  0.476E-03
  -1.092  0.423E-02  0.192E-08  0.178E-02  0.180E-02  0.633E-09  0.114E-08  0.338E-03  0.301E-03
  -0.992  0.270E-02  0.116E-09  0.118E-02  0.120E-02  0.379E-10  0.686E-10  0.170E-03  0.152E-03
  -0.892  0.141E-02  0.585E-11  0.637E-03  0.641E-03  0.183E-11  0.324E-11  0.716E-04  0.599E-04
  -0.792  0.589E-03  0.360E-12  0.272E-03  0.273E-03  0.101E-12  0.151E-12  0.247E-04  0.184E-04
  -0.692  0.194E-03  0.464E-13  0.912E-04  0.915E-04  0.148E-13  0.161E-13  0.684E-05  0.438E-05
  -0.592  0.500E-04  0.761E-14  0.238E-04  0.239E-04  0.336E-14  0.333E-14  0.151E-05  0.803E-06
  -0.492  0.100E-04  0.108E-14  0.481E-05  0.482E-05  0.670E-15  0.662E-15  0.264E-06  0.113E-06
  -0.392  0.155E-05  0.117E-15  0.750E-06  0.751E-06  0.104E-15  0.102E-15  0.362E-07  0.123E-07
  -0.292  0.185E-06  0.975E-17  0.900E-07  0.902E-07  0.124E-16  0.122E-16  0.388E-08  0.102E-08
  -0.192  0.173E-07  0.660E-18  0.836E-08  0.834E-08  0.118E-17  0.114E-17  0.577E-09  0.727E-10
  -0.092  0.683E-08  0.616E-18  0.152E-08  0.911E-09  0.779E-18  0.390E-18  0.428E-08  0.129E-09
   0.008  0.730E-07  0.757E-17  0.126E-07  0.440E-08  0.960E-17  0.426E-17  0.544E-07  0.162E-08
   0.108  0.726E-06  0.753E-16  0.131E-06  0.457E-07  0.101E-15  0.449E-16  0.534E-06  0.160E-07
   0.208  0.556E-05  0.625E-15  0.105E-05  0.367E-06  0.130E-14  0.528E-15  0.403E-05  0.122E-06
   0.308  0.329E-04  0.711E-14  0.649E-05  0.228E-05  0.405E-13  0.145E-13  0.234E-04  0.717E-06
   0.408  0.150E-03  0.143E-12  0.310E-04  0.109E-04  0.123E-11  0.447E-12  0.105E-03  0.326E-05
   0.508  0.532E-03  0.336E-11  0.115E-03  0.410E-04  0.315E-10  0.116E-10  0.364E-03  0.116E-04
   0.608  0.148E-02  0.661E-10  0.337E-03  0.121E-03  0.625E-09  0.235E-09  0.987E-03  0.321E-04
   0.708  0.324E-02  0.101E-08  0.786E-03  0.287E-03  0.956E-08  0.369E-08  0.210E-02  0.711E-04
   0.808  0.574E-02  0.119E-07  0.149E-02  0.559E-03  0.112E-06  0.450E-07  0.355E-02  0.128E-03
   0.908  0.841E-02  0.108E-06  0.239E-02  0.937E-03  0.102E-05  0.426E-06  0.488E-02  0.192E-03
   1.008  0.106E-01  0.758E-06  0.333E-02  0.142E-02  0.711E-05  0.315E-05  0.561E-02  0.250E-03
   1.108  0.121E-01  0.412E-05  0.414E-02  0.204E-02  0.384E-04  0.182E-04  0.559E-02  0.290E-03
   1.208  0.131E-01  0.174E-04  0.470E-02  0.286E-02  0.162E-03  0.831E-04  0.501E-02  0.307E-03
   1.308  0.142E-01  0.572E-04  0.496E-02  0.391E-02  0.532E-03  0.301E-03  0.415E-02  0.301E-03
   1.408  0.159E-01  0.148E-03  0.499E-02  0.505E-02  0.139E-02  0.872E-03  0.321E-02  0.279E-03
   1.508  0.187E-01  0.306E-03  0.490E-02  0.600E-02  0.291E-02  0.205E-02  0.230E-02  0.258E-03
   1.608  0.225E-01  0.507E-03  0.479E-02  0.652E-02  0.503E-02  0.395E-02  0.150E-02  0.249E-03
   1.708  0.267E-01  0.689E-03  0.465E-02  0.651E-02  0.734E-02  0.636E-02  0.869E-03  0.263E-03
   1.808  0.302E-01  0.792E-03  0.454E-02  0.615E-02  0.930E-02  0.868E-02  0.455E-03  0.301E-03
   1.908  0.321E-01  0.799E-03  0.452E-02  0.571E-02  0.104E-01  0.102E-01  0.238E-03  0.354E-03
   2.008  0.318E-01  0.741E-03  0.461E-02  0.540E-02  0.102E-01  0.103E-01  0.155E-03  0.394E-03
   2.108  0.292E-01  0.660E-03  0.470E-02  0.518E-02  0.896E-02  0.916E-02  0.137E-03  0.390E-03
   2.208  0.249E-01  0.587E-03  0.451E-02  0.480E-02  0.711E-02  0.742E-02  0.133E-03  0.334E-03
   2.308  0.200E-01  0.545E-03  0.387E-02  0.404E-02  0.536E-02  0.582E-02  0.122E-03  0.248E-03
   2.408  0.156E-01  0.559E-03  0.290E-02  0.301E-02  0.413E-02  0.476E-02  0.102E-03  0.166E-03
   2.508  0.126E-01  0.663E-03  0.196E-02  0.203E-02  0.346E-02  0.432E-02  0.776E-04  0.107E-03
   2.608  0.115E-01  0.905E-03  0.136E-02  0.141E-02  0.322E-02  0.448E-02  0.556E-04  0.686E-04
   2.708  0.122E-01  0.134E-02  0.112E-02  0.116E-02  0.330E-02  0.521E-02  0.378E-04  0.448E-04
   2.808  0.141E-01  0.193E-02  0.105E-02  0.109E-02  0.359E-02  0.640E-02  0.240E-04  0.286E-04
   2.908  0.160E-01  0.252E-02  0.950E-03  0.971E-03  0.392E-02  0.762E-02  0.139E-04  0.170E-04
   3.008  0.166E-01  0.283E-02  0.730E-03  0.742E-03  0.406E-02  0.821E-02  0.716E-05  0.899E-05
   3.108  0.152E-01  0.267E-02  0.454E-03  0.460E-03  0.385E-02  0.774E-02  0.315E-05  0.407E-05
   3.208  0.125E-01  0.216E-02  0.224E-03  0.226E-03  0.339E-02  0.647E-02  0.116E-05  0.153E-05
   3.308  0.969E-02  0.159E-02  0.862E-04  0.868E-04  0.288E-02  0.505E-02  0.349E-06  0.470E-06
   3.408  0.770E-02  0.117E-02  0.258E-04  0.260E-04  0.250E-02  0.397E-02  0.847E-07  0.116E-06
   3.508  0.655E-02  0.942E-03  0.598E-05  0.601E-05  0.228E-02  0.331E-02  0.164E-07  0.232E-07
   3.608  0.594E-02  0.842E-03  0.107E-05  0.107E-05  0.216E-02  0.293E-02  0.250E-08  0.976E-08
   3.708  0.560E-02  0.809E-03  0.148E-06  0.148E-06  0.211E-02  0.268E-02  0.299E-09  0.575E-07
   3.808  0.545E-02  0.807E-03  0.232E-07  0.226E-07  0.213E-02  0.251E-02  0.322E-10  0.398E-06
   3.908  0.548E-02  0.812E-03  0.492E-07  0.449E-07  0.224E-02  0.243E-02  0.290E-10  0.213E-05
   4.008  0.569E-02  0.801E-03  0.235E-06  0.211E-06  0.243E-02  0.245E-02  0.166E-09  0.870E-05
   4.108  0.604E-02  0.763E-03  0.906E-06  0.802E-06  0.268E-02  0.257E-02  0.847E-09  0.273E-04
   4.208  0.651E-02  0.705E-03  0.278E-05  0.241E-05  0.295E-02  0.279E-02  0.355E-08  0.660E-04
   4.308  0.712E-02  0.661E-03  0.686E-05  0.579E-05  0.325E-02  0.308E-02  0.125E-07  0.123E-03
   4.408  0.773E-02  0.682E-03  0.139E-04  0.113E-04  0.349E-02  0.336E-02  0.385E-07  0.176E-03
   4.508  0.796E-02  0.806E-03  0.244E-04  0.185E-04  0.350E-02  0.342E-02  0.114E-06  0.195E-03
   4.608  0.743E-02  0.100E-02  0.410E-04  0.273E-04  0.312E-02  0.307E-02  0.360E-06  0.172E-03
   4.708  0.610E-02  0.117E-02  0.773E-04  0.413E-04  0.235E-02  0.233E-02  0.123E-05  0.135E-03
   4.808  0.455E-02  0.121E-02  0.170E-03  0.735E-04  0.147E-02  0.146E-02  0.415E-05  0.172E-03
   4.908  0.367E-02  0.111E-02  0.375E-03  0.145E-03  0.762E-03  0.761E-03  0.123E-04  0.499E-03
   5.008  0.429E-02  0.950E-03  0.726E-03  0.270E-03  0.360E-03  0.362E-03  0.307E-04  0.159E-02
   5.108  0.700E-02  0.792E-03  0.116E-02  0.430E-03  0.198E-03  0.203E-03  0.640E-04  0.415E-02
   5.208  0.117E-01  0.671E-03  0.152E-02  0.571E-03  0.162E-03  0.170E-03  0.112E-03  0.853E-02
   5.308  0.173E-01  0.583E-03  0.167E-02  0.638E-03  0.173E-03  0.186E-03  0.169E-03  0.139E-01
   5.408  0.220E-01  0.519E-03  0.158E-02  0.619E-03  0.201E-03  0.219E-03  0.226E-03  0.186E-01
   5.508  0.246E-01  0.470E-03  0.136E-02  0.548E-03  0.235E-03  0.263E-03  0.277E-03  0.215E-01
   5.608  0.260E-01  0.432E-03  0.113E-02  0.464E-03  0.276E-03  0.319E-03  0.320E-03  0.230E-01
   5.708  0.271E-01  0.404E-03  0.960E-03  0.393E-03  0.324E-03  0.391E-03  0.363E-03  0.243E-01
   5.808  0.280E-01  0.387E-03  0.850E-03  0.349E-03  0.385E-03  0.489E-03  0.420E-03  0.251E-01
   5.908  0.279E-01  0.390E-03  0.802E-03  0.341E-03  0.463E-03  0.634E-03  0.517E-03  0.248E-01
   6.008  0.267E-01  0.429E-03  0.809E-03  0.378E-03  0.573E-03  0.862E-03  0.687E-03  0.230E-01
   6.108  0.253E-01  0.532E-03  0.856E-03  0.452E-03  0.732E-03  0.123E-02  0.945E-03  0.205E-01
   6.208  0.245E-01  0.735E-03  0.907E-03  0.532E-03  0.958E-03  0.179E-02  0.129E-02  0.183E-01
   6.308  0.246E-01  0.104E-02  0.933E-03  0.580E-03  0.124E-02  0.250E-02  0.171E-02  0.166E-01
   6.408  0.252E-01  0.141E-02  0.958E-03  0.600E-03  0.152E-02  0.320E-02  0.218E-02  0.153E-01
   6.508  0.259E-01  0.172E-02  0.108E-02  0.645E-03  0.171E-02  0.362E-02  0.267E-02  0.144E-01
   6.608  0.262E-01  0.191E-02  0.142E-02  0.779E-03  0.175E-02  0.357E-02  0.306E-02  0.137E-01
   6.708  0.262E-01  0.200E-02  0.199E-02  0.102E-02  0.165E-02  0.306E-02  0.326E-02  0.132E-01
   6.808  0.259E-01  0.210E-02  0.266E-02  0.135E-02  0.148E-02  0.234E-02  0.325E-02  0.128E-01
   6.908  0.258E-01  0.224E-02  0.329E-02  0.171E-02  0.134E-02  0.169E-02  0.311E-02  0.124E-01
   7.008  0.258E-01  0.232E-02  0.380E-02  0.213E-02  0.129E-02  0.126E-02  0.297E-02  0.120E-01
   7.108  0.262E-01  0.226E-02  0.423E-02  0.265E-02  0.133E-02  0.110E-02  0.291E-02  0.117E-01
   7.208  0.271E-01  0.212E-02  0.464E-02  0.330E-02  0.146E-02  0.121E-02  0.292E-02  0.115E-01
   7.308  0.285E-01  0.210E-02  0.502E-02  0.394E-02  0.170E-02  0.160E-02  0.287E-02  0.113E-01
   7.408  0.301E-01  0.232E-02  0.530E-02  0.432E-02  0.203E-02  0.227E-02  0.267E-02  0.112E-01
   7.508  0.312E-01  0.270E-02  0.541E-02  0.424E-02  0.242E-02  0.309E-02  0.230E-02  0.110E-01
   7.608  0.310E-01  0.296E-02  0.534E-02  0.379E-02  0.277E-02  0.374E-02  0.190E-02  0.105E-01
   7.708  0.293E-01  0.289E-02  0.507E-02  0.324E-02  0.298E-02  0.390E-02  0.159E-02  0.962E-02
   7.808  0.266E-01  0.264E-02  0.464E-02  0.284E-02  0.310E-02  0.359E-02  0.144E-02  0.832E-02
   7.908  0.245E-01  0.272E-02  0.419E-02  0.266E-02  0.330E-02  0.316E-02  0.144E-02  0.705E-02
   8.008  0.250E-01  0.376E-02  0.389E-02  0.267E-02  0.377E-02  0.307E-02  0.152E-02  0.636E-02
   8.108  0.288E-01  0.601E-02  0.373E-02  0.282E-02  0.454E-02  0.350E-02  0.166E-02  0.659E-02
   8.208  0.347E-01  0.902E-02  0.364E-02  0.304E-02  0.534E-02  0.422E-02  0.184E-02  0.764E-02
   8.308  0.406E-01  0.118E-01  0.369E-02  0.335E-02  0.574E-02  0.484E-02  0.209E-02  0.906E-02
   8.408  0.449E-01  0.134E-01  0.421E-02  0.384E-02  0.553E-02  0.513E-02  0.242E-02  0.104E-01
   8.508  0.484E-01  0.141E-01  0.556E-02  0.451E-02  0.490E-02  0.522E-02  0.276E-02  0.114E-01
   8.608  0.523E-01  0.145E-01  0.756E-02  0.515E-02  0.431E-02  0.546E-02  0.297E-02  0.123E-01
   8.708  0.563E-01  0.152E-01  0.930E-02  0.540E-02  0.406E-02  0.597E-02  0.294E-02  0.134E-01
   8.808  0.586E-01  0.161E-01  0.977E-02  0.506E-02  0.414E-02  0.657E-02  0.265E-02  0.143E-01
   8.908  0.581E-01  0.168E-01  0.883E-02  0.443E-02  0.432E-02  0.696E-02  0.227E-02  0.144E-01
   9.008  0.555E-01  0.170E-01  0.749E-02  0.410E-02  0.442E-02  0.699E-02  0.197E-02  0.134E-01
   9.108  0.528E-01  0.167E-01  0.691E-02  0.451E-02  0.441E-02  0.673E-02  0.188E-02  0.117E-01
   9.208  0.511E-01  0.157E-01  0.739E-02  0.558E-02  0.427E-02  0.627E-02  0.198E-02  0.991E-02
   9.308  0.497E-01  0.139E-01  0.838E-02  0.688E-02  0.396E-02  0.566E-02  0.224E-02  0.865E-02
   9.408  0.476E-01  0.111E-01  0.934E-02  0.813E-02  0.348E-02  0.500E-02  0.263E-02  0.784E-02
   9.508  0.454E-01  0.805E-02  0.103E-01  0.942E-02  0.290E-02  0.438E-02  0.315E-02  0.718E-02
   9.608  0.444E-01  0.531E-02  0.116E-01  0.110E-01  0.239E-02  0.389E-02  0.372E-02  0.654E-02
   9.708  0.450E-01  0.338E-02  0.132E-01  0.127E-01  0.204E-02  0.352E-02  0.422E-02  0.596E-02
   9.808  0.457E-01  0.227E-02  0.143E-01  0.139E-01  0.189E-02  0.327E-02  0.453E-02  0.551E-02
   9.908  0.448E-01  0.174E-02  0.143E-01  0.136E-01  0.200E-02  0.318E-02  0.476E-02  0.520E-02
  10.008  0.428E-01  0.160E-02  0.131E-01  0.120E-01  0.250E-02  0.339E-02  0.529E-02  0.497E-02
  10.108  0.425E-01  0.183E-02  0.117E-01  0.994E-02  0.357E-02  0.408E-02  0.666E-02  0.472E-02
  10.208  0.463E-01  0.251E-02  0.110E-01  0.846E-02  0.532E-02  0.541E-02  0.922E-02  0.434E-02
  10.308  0.538E-01  0.363E-02  0.111E-01  0.778E-02  0.758E-02  0.735E-02  0.125E-01  0.380E-02
  10.408  0.615E-01  0.493E-02  0.111E-01  0.750E-02  0.998E-02  0.960E-02  0.152E-01  0.315E-02
  10.508  0.660E-01  0.595E-02  0.106E-01  0.720E-02  0.121E-01  0.117E-01  0.159E-01  0.257E-02
  10.608  0.662E-01  0.642E-02  0.952E-02  0.682E-02  0.135E-01  0.133E-01  0.145E-01  0.217E-02
  10.708  0.632E-01  0.654E-02  0.855E-02  0.654E-02  0.137E-01  0.140E-01  0.120E-01  0.192E-02
  10.808  0.586E-01  0.672E-02  0.804E-02  0.656E-02  0.125E-01  0.133E-01  0.969E-02  0.175E-02
  10.908  0.538E-01  0.720E-02  0.807E-02  0.689E-02  0.104E-01  0.116E-01  0.805E-02  0.163E-02
  11.008  0.500E-01  0.774E-02  0.830E-02  0.736E-02  0.834E-02  0.963E-02  0.705E-02  0.159E-02
  11.108  0.474E-01  0.792E-02  0.829E-02  0.769E-02  0.715E-02  0.814E-02  0.647E-02  0.171E-02
  11.208  0.454E-01  0.751E-02  0.786E-02  0.774E-02  0.678E-02  0.726E-02  0.614E-02  0.211E-02
  11.308  0.438E-01  0.668E-02  0.732E-02  0.757E-02  0.661E-02  0.667E-02  0.594E-02  0.303E-02
  11.408  0.431E-01  0.579E-02  0.719E-02  0.735E-02  0.617E-02  0.609E-02  0.576E-02  0.479E-02
  11.508  0.444E-01  0.521E-02  0.767E-02  0.716E-02  0.565E-02  0.564E-02  0.556E-02  0.748E-02
  11.608  0.485E-01  0.518E-02  0.848E-02  0.702E-02  0.588E-02  0.595E-02  0.537E-02  0.106E-01
  11.708  0.564E-01  0.584E-02  0.924E-02  0.698E-02  0.796E-02  0.787E-02  0.523E-02  0.133E-01
  11.808  0.681E-01  0.704E-02  0.974E-02  0.703E-02  0.127E-01  0.120E-01  0.515E-02  0.145E-01
  11.908  0.821E-01  0.837E-02  0.998E-02  0.714E-02  0.197E-01  0.178E-01  0.514E-02  0.140E-01
  12.008  0.939E-01  0.929E-02  0.101E-01  0.731E-02  0.267E-01  0.231E-01  0.517E-02  0.123E-01
  12.108  0.979E-01  0.949E-02  0.100E-01  0.753E-02  0.305E-01  0.250E-01  0.518E-02  0.102E-01
  12.208  0.911E-01  0.907E-02  0.971E-02  0.771E-02  0.291E-01  0.223E-01  0.505E-02  0.815E-02
  12.308  0.768E-01  0.842E-02  0.901E-02  0.763E-02  0.239E-01  0.167E-01  0.466E-02  0.654E-02
  12.408  0.620E-01  0.782E-02  0.802E-02  0.725E-02  0.179E-01  0.111E-01  0.406E-02  0.586E-02
  12.508  0.523E-01  0.722E-02  0.720E-02  0.686E-02  0.134E-01  0.736E-02  0.346E-02  0.678E-02
  12.608  0.492E-01  0.640E-02  0.693E-02  0.685E-02  0.108E-01  0.548E-02  0.309E-02  0.960E-02
  12.708  0.500E-01  0.530E-02  0.711E-02  0.723E-02  0.933E-02  0.456E-02  0.296E-02  0.135E-01
  12.808  0.508E-01  0.419E-02  0.730E-02  0.762E-02  0.823E-02  0.393E-02  0.297E-02  0.165E-01
  12.908  0.486E-01  0.346E-02  0.718E-02  0.762E-02  0.728E-02  0.342E-02  0.296E-02  0.167E-01
  13.008  0.433E-01  0.330E-02  0.675E-02  0.715E-02  0.652E-02  0.306E-02  0.292E-02  0.136E-01
  13.108  0.372E-01  0.364E-02  0.619E-02  0.648E-02  0.603E-02  0.295E-02  0.297E-02  0.894E-02
  13.208  0.329E-01  0.417E-02  0.569E-02  0.593E-02  0.584E-02  0.315E-02  0.326E-02  0.482E-02
  13.308  0.312E-01  0.449E-02  0.534E-02  0.568E-02  0.590E-02  0.368E-02  0.377E-02  0.232E-02
  13.408  0.312E-01  0.439E-02  0.508E-02  0.566E-02  0.614E-02  0.442E-02  0.428E-02  0.127E-02
  13.508  0.316E-01  0.406E-02  0.479E-02  0.565E-02  0.641E-02  0.517E-02  0.451E-02  0.103E-02
  13.608  0.314E-01  0.377E-02  0.439E-02  0.548E-02  0.657E-02  0.568E-02  0.439E-02  0.110E-02
  13.708  0.305E-01  0.365E-02  0.394E-02  0.512E-02  0.651E-02  0.588E-02  0.416E-02  0.123E-02
  13.808  0.297E-01  0.372E-02  0.357E-02  0.474E-02  0.626E-02  0.589E-02  0.418E-02  0.129E-02
  13.908  0.299E-01  0.396E-02  0.341E-02  0.454E-02  0.601E-02  0.603E-02  0.467E-02  0.128E-02
  14.008  0.319E-01  0.431E-02  0.348E-02  0.460E-02  0.604E-02  0.664E-02  0.558E-02  0.125E-02
  14.108  0.353E-01  0.465E-02  0.369E-02  0.482E-02  0.649E-02  0.784E-02  0.658E-02  0.124E-02
  14.208  0.388E-01  0.486E-02  0.388E-02  0.502E-02  0.723E-02  0.928E-02  0.726E-02  0.128E-02
  14.308  0.411E-01  0.499E-02  0.393E-02  0.511E-02  0.789E-02  0.102E-01  0.749E-02  0.141E-02
  14.408  0.419E-01  0.530E-02  0.386E-02  0.515E-02  0.819E-02  0.102E-01  0.744E-02  0.171E-02
  14.508  0.424E-01  0.626E-02  0.372E-02  0.517E-02  0.811E-02  0.940E-02  0.739E-02  0.231E-02
  14.608  0.440E-01  0.851E-02  0.356E-02  0.513E-02  0.785E-02  0.823E-02  0.742E-02  0.332E-02
  14.708  0.476E-01  0.124E-01  0.339E-02  0.500E-02  0.760E-02  0.727E-02  0.739E-02  0.453E-02
  14.808  0.522E-01  0.173E-01  0.334E-02  0.481E-02  0.742E-02  0.669E-02  0.722E-02  0.544E-02
  14.908  0.554E-01  0.209E-01  0.353E-02  0.470E-02  0.726E-02  0.638E-02  0.700E-02  0.561E-02
  15.008  0.554E-01  0.212E-01  0.407E-02  0.479E-02  0.712E-02  0.620E-02  0.692E-02  0.511E-02
  15.108  0.533E-01  0.186E-01  0.486E-02  0.511E-02  0.707E-02  0.618E-02  0.705E-02  0.446E-02
  15.208  0.523E-01  0.159E-01  0.565E-02  0.558E-02  0.733E-02  0.651E-02  0.736E-02  0.405E-02
  15.308  0.555E-01  0.157E-01  0.623E-02  0.618E-02  0.823E-02  0.753E-02  0.779E-02  0.391E-02
  15.408  0.640E-01  0.183E-01  0.658E-02  0.700E-02  0.101E-01  0.959E-02  0.847E-02  0.403E-02
  15.508  0.775E-01  0.222E-01  0.680E-02  0.826E-02  0.130E-01  0.128E-01  0.961E-02  0.485E-02
  15.608  0.944E-01  0.258E-01  0.702E-02  0.101E-01  0.163E-01  0.166E-01  0.112E-01  0.725E-02
  15.708  0.111E+00  0.279E-01  0.730E-02  0.123E-01  0.188E-01  0.197E-01  0.129E-01  0.119E-01
  15.808  0.121E+00  0.278E-01  0.756E-02  0.141E-01  0.193E-01  0.205E-01  0.139E-01  0.179E-01
  15.908  0.122E+00  0.262E-01  0.769E-02  0.149E-01  0.177E-01  0.191E-01  0.136E-01  0.227E-01
  16.008  0.114E+00  0.239E-01  0.771E-02  0.148E-01  0.151E-01  0.163E-01  0.125E-01  0.240E-01
  16.108  0.104E+00  0.217E-01  0.783E-02  0.144E-01  0.126E-01  0.136E-01  0.114E-01  0.225E-01
  16.208  0.969E-01  0.197E-01  0.816E-02  0.144E-01  0.107E-01  0.115E-01  0.111E-01  0.213E-01
  16.308  0.953E-01  0.179E-01  0.855E-02  0.150E-01  0.934E-02  0.101E-01  0.117E-01  0.227E-01
  16.408  0.969E-01  0.166E-01  0.875E-02  0.156E-01  0.834E-02  0.909E-02  0.131E-01  0.253E-01
  16.508  0.975E-01  0.159E-01  0.857E-02  0.157E-01  0.753E-02  0.842E-02  0.143E-01  0.270E-01
  16.608  0.944E-01  0.161E-01  0.791E-02  0.146E-01  0.679E-02  0.789E-02  0.146E-01  0.266E-01
  16.708  0.872E-01  0.167E-01  0.680E-02  0.121E-01  0.609E-02  0.729E-02  0.133E-01  0.249E-01
  16.808  0.785E-01  0.175E-01  0.554E-02  0.904E-02  0.548E-02  0.651E-02  0.110E-01  0.235E-01
  16.908  0.719E-01  0.180E-01  0.454E-02  0.645E-02  0.512E-02  0.561E-02  0.898E-02  0.231E-01
  17.008  0.693E-01  0.180E-01  0.409E-02  0.513E-02  0.515E-02  0.482E-02  0.819E-02  0.239E-01
  17.108  0.703E-01  0.175E-01  0.411E-02  0.499E-02  0.573E-02  0.446E-02  0.847E-02  0.250E-01
  17.208  0.725E-01  0.168E-01  0.430E-02  0.538E-02  0.708E-02  0.496E-02  0.891E-02  0.251E-01
  17.308  0.745E-01  0.162E-01  0.432E-02  0.561E-02  0.949E-02  0.677E-02  0.869E-02  0.234E-01
  17.408  0.764E-01  0.158E-01  0.406E-02  0.534E-02  0.130E-01  0.100E-01  0.770E-02  0.204E-01
  17.508  0.787E-01  0.157E-01  0.364E-02  0.466E-02  0.169E-01  0.139E-01  0.651E-02  0.173E-01
  17.608  0.803E-01  0.160E-01  0.336E-02  0.401E-02  0.195E-01  0.170E-01  0.571E-02  0.147E-01
  17.708  0.798E-01  0.164E-01  0.362E-02  0.391E-02  0.194E-01  0.177E-01  0.551E-02  0.132E-01
  17.808  0.775E-01  0.169E-01  0.480E-02  0.481E-02  0.166E-01  0.160E-01  0.585E-02  0.125E-01
  17.908  0.756E-01  0.172E-01  0.699E-02  0.677E-02  0.129E-01  0.130E-01  0.677E-02  0.120E-01
  18.008  0.755E-01  0.171E-01  0.954E-02  0.914E-02  0.973E-02  0.100E-01  0.836E-02  0.116E-01
  18.108  0.754E-01  0.163E-01  0.112E-01  0.107E-01  0.773E-02  0.791E-02  0.103E-01  0.113E-01
  18.208  0.723E-01  0.147E-01  0.111E-01  0.106E-01  0.646E-02  0.654E-02  0.117E-01  0.113E-01
  18.308  0.656E-01  0.130E-01  0.940E-02  0.898E-02  0.552E-02  0.573E-02  0.115E-01  0.114E-01
  18.408  0.571E-01  0.116E-01  0.733E-02  0.686E-02  0.486E-02  0.545E-02  0.973E-02  0.113E-01
  18.508  0.497E-01  0.106E-01  0.572E-02  0.517E-02  0.456E-02  0.578E-02  0.737E-02  0.105E-01
  18.608  0.457E-01  0.976E-02  0.496E-02  0.434E-02  0.461E-02  0.669E-02  0.559E-02  0.973E-02
  18.708  0.465E-01  0.917E-02  0.525E-02  0.457E-02  0.485E-02  0.794E-02  0.502E-02  0.968E-02
  18.808  0.524E-01  0.901E-02  0.682E-02  0.598E-02  0.502E-02  0.895E-02  0.583E-02  0.108E-01
  18.908  0.628E-01  0.962E-02  0.962E-02  0.854E-02  0.493E-02  0.928E-02  0.833E-02  0.125E-01
  19.008  0.767E-01  0.113E-01  0.129E-01  0.119E-01  0.467E-02  0.905E-02  0.132E-01  0.136E-01
  19.108  0.927E-01  0.139E-01  0.156E-01  0.155E-01  0.455E-02  0.891E-02  0.206E-01  0.136E-01
  19.208  0.108E+00  0.165E-01  0.168E-01  0.184E-01  0.481E-02  0.939E-02  0.288E-01  0.128E-01
  19.308  0.116E+00  0.182E-01  0.166E-01  0.200E-01  0.538E-02  0.103E-01  0.340E-01  0.118E-01
  19.408  0.115E+00  0.185E-01  0.155E-01  0.199E-01  0.591E-02  0.110E-01  0.335E-01  0.107E-01
  19.508  0.105E+00  0.175E-01  0.141E-01  0.186E-01  0.607E-02  0.108E-01  0.279E-01  0.978E-02
  19.608  0.910E-01  0.158E-01  0.129E-01  0.166E-01  0.585E-02  0.996E-02  0.209E-01  0.901E-02
  19.708  0.789E-01  0.143E-01  0.118E-01  0.146E-01  0.549E-02  0.881E-02  0.153E-01  0.864E-02
  19.808  0.715E-01  0.133E-01  0.113E-01  0.130E-01  0.520E-02  0.781E-02  0.121E-01  0.887E-02
  19.908  0.692E-01  0.130E-01  0.115E-01  0.121E-01  0.505E-02  0.707E-02  0.106E-01  0.988E-02
  20.008  0.713E-01  0.131E-01  0.125E-01  0.119E-01  0.508E-02  0.668E-02  0.102E-01  0.117E-01
  20.108  0.773E-01  0.133E-01  0.143E-01  0.125E-01  0.535E-02  0.681E-02  0.107E-01  0.143E-01
  20.208  0.862E-01  0.133E-01  0.165E-01  0.138E-01  0.595E-02  0.756E-02  0.120E-01  0.171E-01
  20.308  0.963E-01  0.131E-01  0.187E-01  0.152E-01  0.698E-02  0.889E-02  0.137E-01  0.198E-01
  20.408  0.106E+00  0.132E-01  0.199E-01  0.160E-01  0.857E-02  0.108E-01  0.152E-01  0.219E-01
  20.508  0.112E+00  0.138E-01  0.197E-01  0.158E-01  0.108E-01  0.134E-01  0.159E-01  0.229E-01
  20.608  0.116E+00  0.150E-01  0.181E-01  0.147E-01  0.132E-01  0.163E-01  0.157E-01  0.229E-01
  20.708  0.117E+00  0.163E-01  0.156E-01  0.133E-01  0.151E-01  0.186E-01  0.151E-01  0.230E-01
  20.808  0.116E+00  0.174E-01  0.130E-01  0.118E-01  0.157E-01  0.192E-01  0.143E-01  0.250E-01
  20.908  0.117E+00  0.182E-01  0.112E-01  0.109E-01  0.151E-01  0.182E-01  0.135E-01  0.301E-01
  21.008  0.121E+00  0.187E-01  0.107E-01  0.108E-01  0.138E-01  0.165E-01  0.130E-01  0.373E-01
  21.108  0.126E+00  0.189E-01  0.118E-01  0.119E-01  0.128E-01  0.151E-01  0.126E-01  0.428E-01
  21.208  0.129E+00  0.186E-01  0.141E-01  0.140E-01  0.124E-01  0.143E-01  0.126E-01  0.432E-01
  21.308  0.129E+00  0.182E-01  0.170E-01  0.167E-01  0.124E-01  0.137E-01  0.130E-01  0.379E-01
  21.408  0.127E+00  0.187E-01  0.196E-01  0.188E-01  0.126E-01  0.131E-01  0.138E-01  0.304E-01
  21.508  0.127E+00  0.218E-01  0.211E-01  0.195E-01  0.126E-01  0.124E-01  0.148E-01  0.247E-01
  21.608  0.130E+00  0.276E-01  0.215E-01  0.189E-01  0.125E-01  0.119E-01  0.153E-01  0.226E-01
  21.708  0.134E+00  0.340E-01  0.212E-01  0.173E-01  0.122E-01  0.117E-01  0.150E-01  0.229E-01
  21.808  0.135E+00  0.379E-01  0.205E-01  0.155E-01  0.117E-01  0.119E-01  0.138E-01  0.232E-01
  21.908  0.129E+00  0.376E-01  0.194E-01  0.139E-01  0.113E-01  0.124E-01  0.124E-01  0.217E-01
  22.008  0.120E+00  0.342E-01  0.183E-01  0.128E-01  0.111E-01  0.129E-01  0.122E-01  0.186E-01
  22.108  0.114E+00  0.296E-01  0.180E-01  0.128E-01  0.111E-01  0.133E-01  0.138E-01  0.155E-01
  22.208  0.115E+00  0.256E-01  0.189E-01  0.144E-01  0.112E-01  0.134E-01  0.174E-01  0.142E-01
  22.308  0.123E+00  0.225E-01  0.210E-01  0.178E-01  0.113E-01  0.131E-01  0.225E-01  0.151E-01
  22.408  0.138E+00  0.205E-01  0.239E-01  0.228E-01  0.116E-01  0.129E-01  0.282E-01  0.177E-01
  22.508  0.156E+00  0.194E-01  0.275E-01  0.286E-01  0.123E-01  0.132E-01  0.338E-01  0.212E-01
  22.608  0.176E+00  0.185E-01  0.321E-01  0.339E-01  0.135E-01  0.141E-01  0.389E-01  0.254E-01
  22.708  0.195E+00  0.173E-01  0.372E-01  0.379E-01  0.148E-01  0.150E-01  0.429E-01  0.302E-01
  22.808  0.206E+00  0.156E-01  0.411E-01  0.398E-01  0.157E-01  0.152E-01  0.448E-01  0.343E-01
  22.908  0.203E+00  0.137E-01  0.414E-01  0.392E-01  0.158E-01  0.144E-01  0.433E-01  0.357E-01
  23.008  0.186E+00  0.126E-01  0.371E-01  0.366E-01  0.153E-01  0.130E-01  0.388E-01  0.330E-01
  23.108  0.164E+00  0.127E-01  0.301E-01  0.336E-01  0.150E-01  0.123E-01  0.338E-01  0.269E-01
  23.208  0.148E+00  0.139E-01  0.232E-01  0.314E-01  0.162E-01  0.135E-01  0.305E-01  0.198E-01
  23.308  0.143E+00  0.156E-01  0.179E-01  0.294E-01  0.196E-01  0.171E-01  0.294E-01  0.141E-01
  23.408  0.146E+00  0.175E-01  0.144E-01  0.267E-01  0.246E-01  0.224E-01  0.296E-01  0.110E-01
  23.508  0.154E+00  0.196E-01  0.126E-01  0.235E-01  0.292E-01  0.276E-01  0.307E-01  0.107E-01
  23.608  0.164E+00  0.213E-01  0.128E-01  0.214E-01  0.315E-01  0.308E-01  0.331E-01  0.127E-01
  23.708  0.174E+00  0.219E-01  0.153E-01  0.216E-01  0.304E-01  0.311E-01  0.372E-01  0.162E-01
  23.808  0.181E+00  0.210E-01  0.197E-01  0.239E-01  0.267E-01  0.287E-01  0.416E-01  0.194E-01
  23.908  0.184E+00  0.189E-01  0.252E-01  0.279E-01  0.223E-01  0.249E-01  0.443E-01  0.209E-01
  24.008  0.184E+00  0.171E-01  0.311E-01  0.326E-01  0.186E-01  0.213E-01  0.436E-01  0.201E-01
  24.108  0.185E+00  0.174E-01  0.365E-01  0.371E-01  0.167E-01  0.192E-01  0.404E-01  0.181E-01
  24.208  0.190E+00  0.206E-01  0.403E-01  0.400E-01  0.166E-01  0.191E-01  0.367E-01  0.165E-01
  24.308  0.199E+00  0.261E-01  0.420E-01  0.404E-01  0.184E-01  0.207E-01  0.342E-01  0.169E-01
  24.408  0.210E+00  0.317E-01  0.412E-01  0.388E-01  0.216E-01  0.236E-01  0.331E-01  0.196E-01
  24.508  0.220E+00  0.359E-01  0.386E-01  0.366E-01  0.255E-01  0.271E-01  0.331E-01  0.237E-01
  24.608  0.228E+00  0.390E-01  0.356E-01  0.351E-01  0.284E-01  0.295E-01  0.332E-01  0.276E-01
  24.708  0.232E+00  0.425E-01  0.334E-01  0.346E-01  0.292E-01  0.298E-01  0.328E-01  0.301E-01
  24.808  0.235E+00  0.466E-01  0.334E-01  0.347E-01  0.282E-01  0.281E-01  0.327E-01  0.310E-01
  24.908  0.242E+00  0.501E-01  0.364E-01  0.357E-01  0.268E-01  0.262E-01  0.353E-01  0.312E-01
  25.008  0.258E+00  0.517E-01  0.423E-01  0.384E-01  0.261E-01  0.252E-01  0.432E-01  0.313E-01
  25.108  0.280E+00  0.512E-01  0.488E-01  0.423E-01  0.258E-01  0.250E-01  0.557E-01  0.318E-01
  25.208  0.295E+00  0.489E-01  0.512E-01  0.451E-01  0.248E-01  0.246E-01  0.681E-01  0.324E-01
  25.308  0.289E+00  0.449E-01  0.470E-01  0.439E-01  0.231E-01  0.232E-01  0.744E-01  0.328E-01
  25.408  0.263E+00  0.398E-01  0.377E-01  0.384E-01  0.215E-01  0.211E-01  0.714E-01  0.330E-01
  25.508  0.229E+00  0.346E-01  0.276E-01  0.313E-01  0.218E-01  0.193E-01  0.609E-01  0.333E-01
  25.608  0.205E+00  0.313E-01  0.206E-01  0.257E-01  0.262E-01  0.192E-01  0.479E-01  0.340E-01
  25.708  0.202E+00  0.309E-01  0.179E-01  0.235E-01  0.356E-01  0.218E-01  0.371E-01  0.351E-01
  25.808  0.217E+00  0.328E-01  0.186E-01  0.243E-01  0.482E-01  0.260E-01  0.307E-01  0.362E-01
  25.908  0.236E+00  0.350E-01  0.208E-01  0.264E-01  0.591E-01  0.297E-01  0.282E-01  0.366E-01
  26.008  0.244E+00  0.353E-01  0.226E-01  0.280E-01  0.633E-01  0.309E-01  0.277E-01  0.358E-01
  26.108  0.234E+00  0.330E-01  0.231E-01  0.281E-01  0.592E-01  0.289E-01  0.274E-01  0.340E-01
  26.208  0.212E+00  0.290E-01  0.222E-01  0.266E-01  0.501E-01  0.252E-01  0.272E-01  0.320E-01
  26.308  0.191E+00  0.251E-01  0.207E-01  0.245E-01  0.409E-01  0.219E-01  0.276E-01  0.305E-01
  26.408  0.179E+00  0.224E-01  0.193E-01  0.230E-01  0.349E-01  0.208E-01  0.292E-01  0.295E-01
  26.508  0.179E+00  0.218E-01  0.185E-01  0.225E-01  0.326E-01  0.221E-01  0.324E-01  0.293E-01
  26.608  0.189E+00  0.235E-01  0.186E-01  0.223E-01  0.322E-01  0.249E-01  0.369E-01  0.303E-01
  26.708  0.203E+00  0.284E-01  0.193E-01  0.215E-01  0.319E-01  0.276E-01  0.417E-01  0.326E-01
  26.808  0.219E+00  0.371E-01  0.200E-01  0.201E-01  0.314E-01  0.296E-01  0.456E-01  0.357E-01
  26.908  0.237E+00  0.492E-01  0.204E-01  0.185E-01  0.313E-01  0.311E-01  0.485E-01  0.384E-01
  27.008  0.255E+00  0.618E-01  0.203E-01  0.176E-01  0.320E-01  0.326E-01  0.510E-01  0.400E-01
  27.108  0.268E+00  0.697E-01  0.201E-01  0.176E-01  0.330E-01  0.336E-01  0.531E-01  0.406E-01
  27.208  0.267E+00  0.685E-01  0.200E-01  0.180E-01  0.331E-01  0.332E-01  0.539E-01  0.401E-01
  27.308  0.249E+00  0.583E-01  0.199E-01  0.182E-01  0.317E-01  0.306E-01  0.518E-01  0.386E-01
  27.408  0.220E+00  0.442E-01  0.195E-01  0.179E-01  0.291E-01  0.266E-01  0.466E-01  0.362E-01
  27.508  0.193E+00  0.333E-01  0.196E-01  0.180E-01  0.259E-01  0.228E-01  0.399E-01  0.331E-01
  27.608  0.180E+00  0.303E-01  0.215E-01  0.200E-01  0.234E-01  0.205E-01  0.349E-01  0.299E-01
  27.708  0.191E+00  0.349E-01  0.269E-01  0.258E-01  0.222E-01  0.203E-01  0.344E-01  0.267E-01
  27.808  0.220E+00  0.421E-01  0.357E-01  0.353E-01  0.222E-01  0.219E-01  0.391E-01  0.238E-01
  27.908  0.252E+00  0.456E-01  0.450E-01  0.456E-01  0.227E-01  0.243E-01  0.464E-01  0.220E-01
  28.008  0.269E+00  0.422E-01  0.507E-01  0.523E-01  0.230E-01  0.269E-01  0.521E-01  0.218E-01
  28.108  0.268E+00  0.341E-01  0.509E-01  0.528E-01  0.235E-01  0.292E-01  0.542E-01  0.236E-01
  28.208  0.260E+00  0.260E-01  0.469E-01  0.487E-01  0.249E-01  0.314E-01  0.546E-01  0.277E-01
  28.308  0.256E+00  0.209E-01  0.418E-01  0.433E-01  0.275E-01  0.337E-01  0.556E-01  0.335E-01
  28.408  0.257E+00  0.190E-01  0.375E-01  0.387E-01  0.308E-01  0.359E-01  0.561E-01  0.390E-01
  28.508  0.254E+00  0.191E-01  0.349E-01  0.352E-01  0.334E-01  0.373E-01  0.529E-01  0.417E-01
  28.608  0.243E+00  0.197E-01  0.342E-01  0.326E-01  0.342E-01  0.371E-01  0.449E-01  0.408E-01
  28.708  0.227E+00  0.199E-01  0.357E-01  0.309E-01  0.326E-01  0.351E-01  0.349E-01  0.383E-01
  28.808  0.214E+00  0.200E-01  0.386E-01  0.300E-01  0.295E-01  0.317E-01  0.268E-01  0.368E-01
  28.908  0.206E+00  0.209E-01  0.410E-01  0.296E-01  0.263E-01  0.283E-01  0.224E-01  0.378E-01
  29.008  0.208E+00  0.236E-01  0.412E-01  0.294E-01  0.243E-01  0.261E-01  0.213E-01  0.424E-01
  29.108  0.220E+00  0.283E-01  0.394E-01  0.296E-01  0.239E-01  0.255E-01  0.224E-01  0.507E-01
  29.208  0.237E+00  0.336E-01  0.374E-01  0.307E-01  0.247E-01  0.263E-01  0.244E-01  0.602E-01
  29.308  0.253E+00  0.375E-01  0.373E-01  0.335E-01  0.258E-01  0.273E-01  0.264E-01  0.655E-01
  29.408  0.263E+00  0.385E-01  0.405E-01  0.382E-01  0.266E-01  0.281E-01  0.277E-01  0.631E-01
  29.508  0.267E+00  0.367E-01  0.468E-01  0.445E-01  0.270E-01  0.289E-01  0.281E-01  0.546E-01
  29.608  0.269E+00  0.334E-01  0.546E-01  0.508E-01  0.272E-01  0.302E-01  0.279E-01  0.451E-01
  29.708  0.272E+00  0.305E-01  0.606E-01  0.551E-01  0.272E-01  0.321E-01  0.275E-01  0.391E-01
  29.808  0.275E+00  0.295E-01  0.624E-01  0.556E-01  0.272E-01  0.339E-01  0.274E-01  0.386E-01
  29.908  0.279E+00  0.303E-01  0.606E-01  0.529E-01  0.272E-01  0.355E-01  0.286E-01  0.434E-01
  30.008  0.287E+00  0.321E-01  0.575E-01  0.495E-01  0.280E-01  0.373E-01  0.312E-01  0.509E-01
  30.108  0.298E+00  0.337E-01  0.548E-01  0.471E-01  0.307E-01  0.406E-01  0.343E-01  0.565E-01
  30.208  0.307E+00  0.349E-01  0.528E-01  0.465E-01  0.353E-01  0.458E-01  0.359E-01  0.559E-01
  30.308  0.314E+00  0.368E-01  0.514E-01  0.479E-01  0.409E-01  0.521E-01  0.353E-01  0.492E-01
  30.408  0.322E+00  0.417E-01  0.512E-01  0.513E-01  0.460E-01  0.579E-01  0.335E-01  0.407E-01
  30.508  0.338E+00  0.506E-01  0.527E-01  0.553E-01  0.512E-01  0.618E-01  0.317E-01  0.346E-01
  30.608  0.362E+00  0.624E-01  0.557E-01  0.575E-01  0.591E-01  0.643E-01  0.302E-01  0.325E-01
  30.708  0.390E+00  0.740E-01  0.592E-01  0.557E-01  0.718E-01  0.676E-01  0.283E-01  0.332E-01
  30.808  0.417E+00  0.821E-01  0.622E-01  0.504E-01  0.879E-01  0.731E-01  0.256E-01  0.356E-01
  30.908  0.436E+00  0.853E-01  0.636E-01  0.438E-01  0.101E+00  0.800E-01  0.229E-01  0.395E-01
  31.008  0.443E+00  0.835E-01  0.629E-01  0.382E-01  0.106E+00  0.857E-01  0.214E-01  0.449E-01
  31.108  0.435E+00  0.778E-01  0.605E-01  0.348E-01  0.101E+00  0.878E-01  0.221E-01  0.515E-01
  31.208  0.422E+00  0.694E-01  0.579E-01  0.338E-01  0.910E-01  0.863E-01  0.255E-01  0.576E-01
  31.308  0.410E+00  0.602E-01  0.563E-01  0.347E-01  0.832E-01  0.831E-01  0.312E-01  0.616E-01
  31.408  0.406E+00  0.517E-01  0.562E-01  0.371E-01  0.799E-01  0.793E-01  0.388E-01  0.626E-01
  31.508  0.406E+00  0.445E-01  0.578E-01  0.407E-01  0.787E-01  0.737E-01  0.477E-01  0.627E-01
  31.608  0.406E+00  0.387E-01  0.611E-01  0.451E-01  0.751E-01  0.645E-01  0.563E-01  0.651E-01
  31.708  0.404E+00  0.347E-01  0.657E-01  0.495E-01  0.676E-01  0.528E-01  0.620E-01  0.718E-01
  31.808  0.402E+00  0.339E-01  0.703E-01  0.530E-01  0.587E-01  0.421E-01  0.628E-01  0.812E-01
  31.908  0.401E+00  0.375E-01  0.732E-01  0.548E-01  0.516E-01  0.357E-01  0.600E-01  0.881E-01
  32.008  0.398E+00  0.458E-01  0.727E-01  0.543E-01  0.474E-01  0.338E-01  0.567E-01  0.875E-01
  32.108  0.391E+00  0.569E-01  0.679E-01  0.516E-01  0.456E-01  0.348E-01  0.554E-01  0.785E-01
  32.208  0.379E+00  0.674E-01  0.601E-01  0.477E-01  0.444E-01  0.367E-01  0.572E-01  0.653E-01
  32.308  0.364E+00  0.740E-01  0.518E-01  0.436E-01  0.428E-01  0.376E-01  0.608E-01  0.535E-01
  32.408  0.346E+00  0.755E-01  0.452E-01  0.392E-01  0.404E-01  0.371E-01  0.630E-01  0.461E-01
  32.508  0.328E+00  0.728E-01  0.419E-01  0.345E-01  0.387E-01  0.361E-01  0.602E-01  0.436E-01
  32.608  0.315E+00  0.677E-01  0.429E-01  0.307E-01  0.392E-01  0.366E-01  0.520E-01  0.459E-01
  32.708  0.315E+00  0.620E-01  0.477E-01  0.292E-01  0.422E-01  0.398E-01  0.415E-01  0.522E-01
  32.808  0.326E+00  0.567E-01  0.542E-01  0.302E-01  0.467E-01  0.451E-01  0.332E-01  0.597E-01
  32.908  0.339E+00  0.519E-01  0.595E-01  0.326E-01  0.512E-01  0.507E-01  0.292E-01  0.640E-01
  33.008  0.344E+00  0.472E-01  0.612E-01  0.347E-01  0.551E-01  0.546E-01  0.281E-01  0.628E-01
  33.108  0.339E+00  0.430E-01  0.593E-01  0.357E-01  0.590E-01  0.566E-01  0.277E-01  0.575E-01
  33.208  0.335E+00  0.413E-01  0.554E-01  0.357E-01  0.647E-01  0.586E-01  0.272E-01  0.518E-01
  33.308  0.344E+00  0.444E-01  0.519E-01  0.360E-01  0.729E-01  0.626E-01  0.269E-01  0.492E-01
  33.408  0.368E+00  0.520E-01  0.507E-01  0.378E-01  0.813E-01  0.683E-01  0.273E-01  0.503E-01
  33.508  0.395E+00  0.618E-01  0.520E-01  0.412E-01  0.861E-01  0.732E-01  0.282E-01  0.529E-01
  33.608  0.412E+00  0.700E-01  0.538E-01  0.447E-01  0.856E-01  0.746E-01  0.290E-01  0.542E-01
  33.708  0.410E+00  0.737E-01  0.542E-01  0.464E-01  0.813E-01  0.716E-01  0.292E-01  0.531E-01
  33.808  0.394E+00  0.721E-01  0.527E-01  0.454E-01  0.777E-01  0.662E-01  0.289E-01  0.508E-01
  33.908  0.377E+00  0.665E-01  0.497E-01  0.422E-01  0.787E-01  0.617E-01  0.284E-01  0.494E-01
  34.008  0.364E+00  0.585E-01  0.463E-01  0.379E-01  0.838E-01  0.597E-01  0.282E-01  0.495E-01
  34.108  0.352E+00  0.494E-01  0.436E-01  0.339E-01  0.872E-01  0.595E-01  0.287E-01  0.503E-01
  34.208  0.336E+00  0.403E-01  0.416E-01  0.313E-01  0.829E-01  0.591E-01  0.300E-01  0.503E-01
  34.308  0.313E+00  0.327E-01  0.402E-01  0.309E-01  0.706E-01  0.577E-01  0.324E-01  0.487E-01
  34.408  0.293E+00  0.274E-01  0.397E-01  0.330E-01  0.557E-01  0.558E-01  0.361E-01  0.449E-01
  34.508  0.282E+00  0.243E-01  0.407E-01  0.378E-01  0.441E-01  0.543E-01  0.417E-01  0.394E-01
  34.608  0.286E+00  0.229E-01  0.434E-01  0.447E-01  0.377E-01  0.537E-01  0.495E-01  0.341E-01
  34.708  0.303E+00  0.225E-01  0.477E-01  0.525E-01  0.361E-01  0.540E-01  0.589E-01  0.314E-01
  34.808  0.331E+00  0.228E-01  0.531E-01  0.601E-01  0.382E-01  0.553E-01  0.683E-01  0.335E-01
  34.908  0.367E+00  0.242E-01  0.589E-01  0.666E-01  0.426E-01  0.573E-01  0.759E-01  0.411E-01
  35.008  0.401E+00  0.265E-01  0.643E-01  0.715E-01  0.473E-01  0.596E-01  0.799E-01  0.519E-01
  35.108  0.423E+00  0.288E-01  0.685E-01  0.745E-01  0.503E-01  0.611E-01  0.785E-01  0.612E-01
  35.208  0.424E+00  0.303E-01  0.706E-01  0.754E-01  0.515E-01  0.606E-01  0.717E-01  0.634E-01
  35.308  0.402E+00  0.303E-01  0.705E-01  0.739E-01  0.521E-01  0.571E-01  0.621E-01  0.564E-01
  35.408  0.368E+00  0.287E-01  0.681E-01  0.701E-01  0.536E-01  0.513E-01  0.529E-01  0.431E-01
  35.508  0.330E+00  0.256E-01  0.638E-01  0.641E-01  0.558E-01  0.446E-01  0.466E-01  0.294E-01
  35.608  0.295E+00  0.220E-01  0.581E-01  0.566E-01  0.571E-01  0.388E-01  0.429E-01  0.194E-01
  35.708  0.265E+00  0.192E-01  0.525E-01  0.493E-01  0.554E-01  0.342E-01  0.403E-01  0.138E-01
  35.808  0.243E+00  0.187E-01  0.484E-01  0.443E-01  0.514E-01  0.311E-01  0.382E-01  0.114E-01
  35.908  0.237E+00  0.213E-01  0.463E-01  0.431E-01  0.474E-01  0.303E-01  0.374E-01  0.112E-01
  36.008  0.248E+00  0.270E-01  0.458E-01  0.452E-01  0.459E-01  0.325E-01  0.391E-01  0.127E-01
  36.108  0.273E+00  0.343E-01  0.461E-01  0.489E-01  0.472E-01  0.378E-01  0.430E-01  0.153E-01
  36.208  0.300E+00  0.407E-01  0.470E-01  0.524E-01  0.495E-01  0.443E-01  0.470E-01  0.187E-01
  36.308  0.318E+00  0.440E-01  0.481E-01  0.546E-01  0.508E-01  0.494E-01  0.485E-01  0.224E-01
  36.408  0.323E+00  0.442E-01  0.493E-01  0.559E-01  0.498E-01  0.516E-01  0.461E-01  0.258E-01
  36.508  0.318E+00  0.428E-01  0.510E-01  0.585E-01  0.468E-01  0.504E-01  0.409E-01  0.278E-01
  36.608  0.317E+00  0.417E-01  0.553E-01  0.657E-01  0.427E-01  0.470E-01  0.371E-01  0.280E-01
  36.708  0.330E+00  0.417E-01  0.638E-01  0.786E-01  0.384E-01  0.429E-01  0.375E-01  0.269E-01
  36.808  0.350E+00  0.416E-01  0.745E-01  0.926E-01  0.350E-01  0.400E-01  0.411E-01  0.253E-01
  36.908  0.362E+00  0.403E-01  0.817E-01  0.997E-01  0.334E-01  0.395E-01  0.434E-01  0.240E-01
  37.008  0.351E+00  0.381E-01  0.800E-01  0.947E-01  0.339E-01  0.411E-01  0.406E-01  0.229E-01
  37.108  0.324E+00  0.373E-01  0.703E-01  0.813E-01  0.359E-01  0.438E-01  0.337E-01  0.218E-01
  37.208  0.301E+00  0.400E-01  0.587E-01  0.680E-01  0.389E-01  0.474E-01  0.275E-01  0.205E-01
  37.308  0.300E+00  0.469E-01  0.514E-01  0.614E-01  0.429E-01  0.531E-01  0.260E-01  0.188E-01
  37.408  0.324E+00  0.555E-01  0.499E-01  0.625E-01  0.473E-01  0.612E-01  0.300E-01  0.171E-01
  37.508  0.354E+00  0.615E-01  0.525E-01  0.686E-01  0.500E-01  0.697E-01  0.360E-01  0.159E-01
  37.608  0.369E+00  0.606E-01  0.556E-01  0.749E-01  0.492E-01  0.743E-01  0.391E-01  0.153E-01
  37.708  0.355E+00  0.526E-01  0.561E-01  0.769E-01  0.445E-01  0.731E-01  0.368E-01  0.153E-01
  37.808  0.318E+00  0.411E-01  0.523E-01  0.726E-01  0.383E-01  0.674E-01  0.307E-01  0.153E-01
  37.908  0.270E+00  0.310E-01  0.449E-01  0.634E-01  0.326E-01  0.594E-01  0.241E-01  0.150E-01
  38.008  0.226E+00  0.243E-01  0.368E-01  0.528E-01  0.278E-01  0.502E-01  0.192E-01  0.148E-01
  38.108  0.192E+00  0.211E-01  0.308E-01  0.443E-01  0.238E-01  0.404E-01  0.163E-01  0.156E-01
  38.208  0.175E+00  0.211E-01  0.283E-01  0.397E-01  0.211E-01  0.320E-01  0.151E-01  0.176E-01
  38.308  0.175E+00  0.235E-01  0.286E-01  0.394E-01  0.206E-01  0.274E-01  0.152E-01  0.198E-01
  38.408  0.186E+00  0.271E-01  0.298E-01  0.418E-01  0.225E-01  0.268E-01  0.165E-01  0.211E-01
  38.508  0.196E+00  0.297E-01  0.298E-01  0.438E-01  0.251E-01  0.284E-01  0.181E-01  0.208E-01
  38.608  0.195E+00  0.297E-01  0.275E-01  0.429E-01  0.268E-01  0.297E-01  0.188E-01  0.196E-01
  38.708  0.183E+00  0.274E-01  0.236E-01  0.390E-01  0.271E-01  0.296E-01  0.183E-01  0.185E-01
  38.808  0.168E+00  0.245E-01  0.198E-01  0.340E-01  0.266E-01  0.286E-01  0.169E-01  0.176E-01
  38.908  0.157E+00  0.224E-01  0.178E-01  0.307E-01  0.262E-01  0.276E-01  0.158E-01  0.169E-01
  39.008  0.156E+00  0.212E-01  0.182E-01  0.303E-01  0.265E-01  0.277E-01  0.156E-01  0.164E-01
  39.108  0.163E+00  0.208E-01  0.202E-01  0.326E-01  0.276E-01  0.295E-01  0.158E-01  0.161E-01
  39.208  0.174E+00  0.211E-01  0.228E-01  0.359E-01  0.297E-01  0.329E-01  0.157E-01  0.159E-01
  39.308  0.185E+00  0.216E-01  0.250E-01  0.382E-01  0.324E-01  0.371E-01  0.147E-01  0.160E-01
  39.408  0.192E+00  0.215E-01  0.262E-01  0.381E-01  0.355E-01  0.415E-01  0.129E-01  0.165E-01
  39.508  0.194E+00  0.203E-01  0.260E-01  0.358E-01  0.385E-01  0.454E-01  0.106E-01  0.174E-01
  39.608  0.191E+00  0.184E-01  0.247E-01  0.325E-01  0.407E-01  0.473E-01  0.874E-02  0.186E-01
  39.708  0.182E+00  0.165E-01  0.226E-01  0.291E-01  0.410E-01  0.458E-01  0.767E-02  0.194E-01
  39.808  0.168E+00  0.148E-01  0.201E-01  0.265E-01  0.392E-01  0.408E-01  0.749E-02  0.193E-01
  39.908  0.154E+00  0.134E-01  0.182E-01  0.250E-01  0.360E-01  0.341E-01  0.804E-02  0.189E-01
  40.008  0.143E+00  0.126E-01  0.171E-01  0.247E-01  0.323E-01  0.279E-01  0.888E-02  0.191E-01
  40.108  0.137E+00  0.129E-01  0.168E-01  0.249E-01  0.288E-01  0.233E-01  0.939E-02  0.210E-01
  40.208  0.136E+00  0.143E-01  0.169E-01  0.247E-01  0.260E-01  0.205E-01  0.911E-02  0.246E-01
  40.308  0.137E+00  0.164E-01  0.168E-01  0.238E-01  0.241E-01  0.193E-01  0.808E-02  0.286E-01
  40.408  0.136E+00  0.181E-01  0.161E-01  0.220E-01  0.229E-01  0.196E-01  0.672E-02  0.309E-01
  40.508  0.130E+00  0.188E-01  0.142E-01  0.194E-01  0.214E-01  0.205E-01  0.543E-02  0.301E-01
  40.608  0.118E+00  0.187E-01  0.115E-01  0.162E-01  0.193E-01  0.209E-01  0.439E-02  0.265E-01
  40.708  0.103E+00  0.182E-01  0.870E-02  0.131E-01  0.168E-01  0.202E-01  0.369E-02  0.220E-01
  40.808  0.893E-01  0.172E-01  0.669E-02  0.109E-01  0.144E-01  0.186E-01  0.341E-02  0.182E-01
  40.908  0.799E-01  0.159E-01  0.565E-02  0.981E-02  0.125E-01  0.168E-01  0.358E-02  0.157E-01
  41.008  0.739E-01  0.143E-01  0.520E-02  0.955E-02  0.112E-01  0.154E-01  0.405E-02  0.142E-01
  41.108  0.692E-01  0.126E-01  0.488E-02  0.931E-02  0.101E-01  0.149E-01  0.452E-02  0.128E-01
  41.208  0.636E-01  0.109E-01  0.441E-02  0.858E-02  0.902E-02  0.149E-01  0.469E-02  0.111E-01
  41.308  0.569E-01  0.907E-02  0.373E-02  0.737E-02  0.781E-02  0.152E-01  0.439E-02  0.940E-02
  41.408  0.499E-01  0.740E-02  0.295E-02  0.595E-02  0.670E-02  0.153E-01  0.368E-02  0.792E-02
  41.508  0.423E-01  0.593E-02  0.219E-02  0.458E-02  0.567E-02  0.145E-01  0.278E-02  0.664E-02
  41.608  0.334E-01  0.449E-02  0.154E-02  0.339E-02  0.453E-02  0.122E-01  0.191E-02  0.532E-02
  41.708  0.236E-01  0.299E-02  0.104E-02  0.241E-02  0.325E-02  0.874E-02  0.125E-02  0.391E-02
  41.808  0.147E-01  0.166E-02  0.664E-03  0.162E-02  0.207E-02  0.530E-02  0.808E-03  0.260E-02
  41.908  0.824E-02  0.748E-03  0.398E-03  0.990E-03  0.121E-02  0.284E-02  0.514E-03  0.155E-02
  42.008  0.424E-02  0.268E-03  0.216E-03  0.534E-03  0.673E-03  0.144E-02  0.305E-03  0.810E-03
  42.108  0.202E-02  0.770E-04  0.102E-03  0.247E-03  0.354E-03  0.720E-03  0.158E-03  0.361E-03
  42.208  0.861E-03  0.182E-04  0.404E-04  0.967E-04  0.166E-03  0.338E-03  0.681E-04  0.134E-03
  42.308  0.314E-03  0.368E-05  0.133E-04  0.314E-04  0.654E-04  0.136E-03  0.236E-04  0.405E-04
  42.408  0.942E-04  0.674E-06  0.355E-05  0.834E-05  0.207E-04  0.445E-04  0.648E-05  0.998E-05
  42.508  0.226E-04  0.115E-06  0.757E-06  0.178E-05  0.517E-05  0.114E-04  0.138E-05  0.198E-05
  42.608  0.424E-05  0.175E-07  0.127E-06  0.302E-06  0.100E-05  0.225E-05  0.230E-06  0.313E-06
  42.708  0.620E-06  0.229E-08  0.168E-07  0.402E-07  0.150E-06  0.342E-06  0.294E-07  0.393E-07
  42.808  0.700E-07  0.244E-09  0.171E-08  0.415E-08  0.173E-07  0.398E-07  0.289E-08  0.388E-08
