# E (eV)   ldos(E)   pdos(E)    pdos(E)    pdos(E)    pdos(E)    pdos(E)   
 -16.392  0.396E-07  0.270E-07  0.134E-16  0.134E-16  0.621E-08  0.642E-08
 -16.292  0.348E-06  0.228E-06  0.127E-15  0.127E-15  0.588E-07  0.609E-07
 -16.192  0.237E-05  0.148E-05  0.936E-15  0.936E-15  0.433E-06  0.451E-06
 -16.092  0.126E-04  0.747E-05  0.542E-14  0.542E-14  0.250E-05  0.262E-05
 -15.992  0.526E-04  0.292E-04  0.247E-13  0.247E-13  0.114E-04  0.120E-04
 -15.892  0.174E-03  0.893E-04  0.899E-13  0.898E-13  0.410E-04  0.436E-04
 -15.792  0.462E-03  0.215E-03  0.263E-12  0.262E-12  0.119E-03  0.128E-03
 -15.692  0.100E-02  0.415E-03  0.637E-12  0.636E-12  0.282E-03  0.306E-03
 -15.592  0.182E-02  0.656E-03  0.160E-11  0.160E-11  0.555E-03  0.612E-03
 -15.492  0.286E-02  0.877E-03  0.121E-10  0.121E-10  0.932E-03  0.105E-02
 -15.392  0.399E-02  0.104E-02  0.220E-09  0.220E-09  0.138E-02  0.158E-02
 -15.292  0.515E-02  0.114E-02  0.365E-08  0.367E-08  0.184E-02  0.217E-02
 -15.192  0.631E-02  0.122E-02  0.476E-07  0.478E-07  0.231E-02  0.278E-02
 -15.092  0.748E-02  0.129E-02  0.482E-06  0.483E-06  0.277E-02  0.342E-02
 -14.992  0.870E-02  0.136E-02  0.380E-05  0.380E-05  0.324E-02  0.409E-02
 -14.892  0.100E-01  0.143E-02  0.234E-04  0.234E-04  0.373E-02  0.479E-02
 -14.792  0.115E-01  0.150E-02  0.113E-03  0.113E-03  0.424E-02  0.555E-02
 -14.692  0.136E-01  0.156E-02  0.433E-03  0.433E-03  0.479E-02  0.638E-02
 -14.592  0.169E-01  0.161E-02  0.133E-02  0.132E-02  0.539E-02  0.729E-02
 -14.492  0.226E-01  0.165E-02  0.329E-02  0.328E-02  0.605E-02  0.831E-02
 -14.392  0.314E-01  0.168E-02  0.675E-02  0.672E-02  0.680E-02  0.946E-02
 -14.292  0.435E-01  0.171E-02  0.117E-01  0.116E-01  0.765E-02  0.108E-01
 -14.192  0.580E-01  0.172E-02  0.177E-01  0.175E-01  0.867E-02  0.125E-01
 -14.092  0.740E-01  0.172E-02  0.241E-01  0.236E-01  0.995E-02  0.147E-01
 -13.992  0.915E-01  0.173E-02  0.305E-01  0.295E-01  0.117E-01  0.180E-01
 -13.892  0.112E+00  0.175E-02  0.370E-01  0.353E-01  0.146E-01  0.237E-01
 -13.792  0.140E+00  0.180E-02  0.442E-01  0.412E-01  0.193E-01  0.332E-01
 -13.692  0.177E+00  0.188E-02  0.535E-01  0.479E-01  0.264E-01  0.469E-01
 -13.592  0.224E+00  0.191E-02  0.677E-01  0.567E-01  0.356E-01  0.625E-01
 -13.492  0.281E+00  0.180E-02  0.909E-01  0.696E-01  0.447E-01  0.743E-01
 -13.392  0.343E+00  0.149E-02  0.126E+00  0.888E-01  0.502E-01  0.767E-01
 -13.292  0.399E+00  0.106E-02  0.168E+00  0.113E+00  0.485E-01  0.679E-01
 -13.192  0.429E+00  0.632E-03  0.202E+00  0.136E+00  0.392E-01  0.507E-01
 -13.092  0.414E+00  0.312E-03  0.210E+00  0.146E+00  0.259E-01  0.315E-01
 -12.992  0.346E+00  0.127E-03  0.182E+00  0.134E+00  0.137E-01  0.159E-01
 -12.892  0.244E+00  0.420E-04  0.131E+00  0.101E+00  0.574E-02  0.644E-02
 -12.792  0.142E+00  0.112E-04  0.763E-01  0.620E-01  0.188E-02  0.206E-02
 -12.692  0.670E-01  0.238E-05  0.357E-01  0.303E-01  0.477E-03  0.514E-03
 -12.592  0.251E-01  0.401E-06  0.133E-01  0.117E-01  0.938E-04  0.999E-04
 -12.492  0.742E-02  0.530E-07  0.389E-02  0.350E-02  0.142E-04  0.150E-04
 -12.392  0.171E-02  0.547E-08  0.891E-03  0.817E-03  0.166E-05  0.174E-05
 -12.292  0.306E-03  0.439E-09  0.159E-03  0.148E-03  0.148E-06  0.155E-06
 -12.192  0.424E-04  0.274E-10  0.218E-04  0.205E-04  0.102E-07  0.106E-07
 -12.092  0.452E-05  0.132E-11  0.232E-05  0.220E-05  0.536E-09  0.555E-09
 -11.992  0.371E-06  0.488E-13  0.190E-06  0.181E-06  0.216E-10  0.223E-10
 -11.892  0.233E-07  0.136E-14  0.119E-07  0.114E-07  0.667E-12  0.686E-12
 -11.792  0.113E-08  0.152E-16  0.574E-09  0.552E-09  0.139E-13  0.140E-13
 -11.692  0.417E-10  0.325E-21  0.212E-10  0.205E-10  0.690E-19  0.717E-19
 -11.592  0.117E-11  0.820E-23  0.593E-12  0.577E-12  0.196E-20  0.202E-20
 -11.492  0.000E+00  0.000E+00  0.000E+00  0.000E+00  0.000E+00  0.000E+00
 -11.392  0.000E+00  0.000E+00  0.000E+00  0.000E+00  0.000E+00  0.000E+00
 -11.292  0.000E+00  0.000E+00  0.000E+00  0.000E+00  0.000E+00  0.000E+00
 -11.192  0.000E+00  0.000E+00  0.000E+00  0.000E+00  0.000E+00  0.000E+00
 -11.092  0.000E+00  0.000E+00  0.000E+00  0.000E+00  0.000E+00  0.000E+00
 -10.992  0.000E+00  0.000E+00  0.000E+00  0.000E+00  0.000E+00  0.000E+00
 -10.892  0.000E+00  0.000E+00  0.000E+00  0.000E+00  0.000E+00  0.000E+00
 -10.792  0.000E+00  0.000E+00  0.000E+00  0.000E+00  0.000E+00  0.000E+00
 -10.692  0.000E+00  0.000E+00  0.000E+00  0.000E+00  0.000E+00  0.000E+00
 -10.592  0.000E+00  0.000E+00  0.000E+00  0.000E+00  0.000E+00  0.000E+00
 -10.492  0.000E+00  0.000E+00  0.000E+00  0.000E+00  0.000E+00  0.000E+00
 -10.392  0.000E+00  0.000E+00  0.000E+00  0.000E+00  0.000E+00  0.000E+00
 -10.292  0.000E+00  0.000E+00  0.000E+00  0.000E+00  0.000E+00  0.000E+00
 -10.192  0.000E+00  0.000E+00  0.000E+00  0.000E+00  0.000E+00  0.000E+00
 -10.092  0.000E+00  0.000E+00  0.000E+00  0.000E+00  0.000E+00  0.000E+00
  -9.992  0.000E+00  0.000E+00  0.000E+00  0.000E+00  0.000E+00  0.000E+00
  -9.892  0.000E+00  0.000E+00  0.000E+00  0.000E+00  0.000E+00  0.000E+00
  -9.792  0.000E+00  0.000E+00  0.000E+00  0.000E+00  0.000E+00  0.000E+00
  -9.692  0.000E+00  0.000E+00  0.000E+00  0.000E+00  0.000E+00  0.000E+00
  -9.592  0.000E+00  0.000E+00  0.000E+00  0.000E+00  0.000E+00  0.000E+00
  -9.492  0.000E+00  0.000E+00  0.000E+00  0.000E+00  0.000E+00  0.000E+00
  -9.392  0.000E+00  0.000E+00  0.000E+00  0.000E+00  0.000E+00  0.000E+00
  -9.292  0.000E+00  0.000E+00  0.000E+00  0.000E+00  0.000E+00  0.000E+00
  -9.192  0.000E+00  0.000E+00  0.000E+00  0.000E+00  0.000E+00  0.000E+00
  -9.092  0.000E+00  0.000E+00  0.000E+00  0.000E+00  0.000E+00  0.000E+00
  -8.992  0.000E+00  0.000E+00  0.000E+00  0.000E+00  0.000E+00  0.000E+00
  -8.892  0.000E+00  0.000E+00  0.000E+00  0.000E+00  0.000E+00  0.000E+00
  -8.792  0.000E+00  0.000E+00  0.000E+00  0.000E+00  0.000E+00  0.000E+00
  -8.692  0.559E-13  0.135E-13  0.179E-22  0.615E-23  0.106E-13  0.318E-13
  -8.592  0.248E-11  0.598E-12  0.803E-21  0.279E-21  0.472E-12  0.141E-11
  -8.492  0.786E-10  0.189E-10  0.255E-19  0.889E-20  0.149E-10  0.447E-10
  -8.392  0.190E-08  0.458E-09  0.618E-18  0.217E-18  0.361E-09  0.108E-08
  -8.292  0.352E-07  0.850E-08  0.115E-16  0.405E-17  0.670E-08  0.200E-07
  -8.192  0.501E-06  0.121E-06  0.360E-12  0.358E-12  0.952E-07  0.285E-06
  -8.092  0.547E-05  0.133E-05  0.135E-10  0.134E-10  0.104E-05  0.311E-05
  -7.992  0.460E-04  0.113E-04  0.382E-09  0.380E-09  0.871E-05  0.260E-04
  -7.892  0.298E-03  0.741E-04  0.829E-08  0.825E-08  0.562E-04  0.168E-03
  -7.792  0.150E-02  0.384E-03  0.138E-06  0.137E-06  0.280E-03  0.835E-03
  -7.692  0.589E-02  0.159E-02  0.176E-05  0.175E-05  0.108E-02  0.321E-02
  -7.592  0.183E-01  0.540E-02  0.172E-04  0.171E-04  0.323E-02  0.962E-02
  -7.492  0.458E-01  0.154E-01  0.129E-03  0.128E-03  0.759E-02  0.226E-01
  -7.392  0.955E-01  0.380E-01  0.749E-03  0.742E-03  0.142E-01  0.419E-01
  -7.292  0.171E+00  0.806E-01  0.335E-02  0.331E-02  0.214E-01  0.627E-01
  -7.192  0.275E+00  0.146E+00  0.116E-01  0.114E-01  0.272E-01  0.782E-01
  -7.092  0.402E+00  0.223E+00  0.313E-01  0.308E-01  0.313E-01  0.850E-01
  -6.992  0.543E+00  0.289E+00  0.663E-01  0.648E-01  0.367E-01  0.868E-01
  -6.892  0.682E+00  0.323E+00  0.112E+00  0.108E+00  0.491E-01  0.903E-01
  -6.792  0.803E+00  0.329E+00  0.153E+00  0.145E+00  0.737E-01  0.101E+00
  -6.692  0.892E+00  0.324E+00  0.178E+00  0.162E+00  0.110E+00  0.118E+00
  -6.592  0.935E+00  0.316E+00  0.183E+00  0.155E+00  0.146E+00  0.135E+00
  -6.492  0.909E+00  0.297E+00  0.175E+00  0.133E+00  0.164E+00  0.139E+00
  -6.392  0.800E+00  0.256E+00  0.161E+00  0.107E+00  0.153E+00  0.122E+00
  -6.292  0.630E+00  0.197E+00  0.143E+00  0.821E-01  0.118E+00  0.900E-01
  -6.192  0.449E+00  0.136E+00  0.122E+00  0.613E-01  0.742E-01  0.546E-01
  -6.092  0.304E+00  0.887E-01  0.102E+00  0.461E-01  0.389E-01  0.279E-01
  -5.992  0.213E+00  0.570E-01  0.877E-01  0.364E-01  0.183E-01  0.136E-01
  -5.892  0.169E+00  0.377E-01  0.788E-01  0.310E-01  0.106E-01  0.108E-01
  -5.792  0.165E+00  0.307E-01  0.743E-01  0.280E-01  0.125E-01  0.195E-01
  -5.692  0.205E+00  0.413E-01  0.721E-01  0.262E-01  0.223E-01  0.435E-01
  -5.592  0.295E+00  0.735E-01  0.711E-01  0.252E-01  0.393E-01  0.856E-01
  -5.492  0.417E+00  0.122E+00  0.707E-01  0.245E-01  0.604E-01  0.139E+00
  -5.392  0.527E+00  0.167E+00  0.706E-01  0.243E-01  0.801E-01  0.184E+00
  -5.292  0.578E+00  0.187E+00  0.709E-01  0.247E-01  0.938E-01  0.202E+00
  -5.192  0.567E+00  0.174E+00  0.716E-01  0.263E-01  0.104E+00  0.191E+00
  -5.092  0.533E+00  0.139E+00  0.733E-01  0.313E-01  0.117E+00  0.173E+00
  -4.992  0.525E+00  0.991E-01  0.775E-01  0.445E-01  0.138E+00  0.166E+00
  -4.892  0.559E+00  0.679E-01  0.871E-01  0.742E-01  0.158E+00  0.171E+00
  -4.792  0.627E+00  0.476E-01  0.105E+00  0.129E+00  0.169E+00  0.176E+00
  -4.692  0.715E+00  0.366E-01  0.133E+00  0.211E+00  0.165E+00  0.169E+00
  -4.592  0.814E+00  0.319E-01  0.168E+00  0.309E+00  0.152E+00  0.153E+00
  -4.492  0.908E+00  0.305E-01  0.200E+00  0.402E+00  0.139E+00  0.136E+00
  -4.392  0.968E+00  0.305E-01  0.220E+00  0.457E+00  0.133E+00  0.128E+00
  -4.292  0.975E+00  0.309E-01  0.221E+00  0.455E+00  0.138E+00  0.130E+00
  -4.192  0.946E+00  0.313E-01  0.204E+00  0.405E+00  0.157E+00  0.148E+00
  -4.092  0.931E+00  0.318E-01  0.182E+00  0.336E+00  0.196E+00  0.186E+00
  -3.992  0.979E+00  0.324E-01  0.162E+00  0.275E+00  0.259E+00  0.250E+00
  -3.892  0.109E+01  0.331E-01  0.149E+00  0.234E+00  0.339E+00  0.331E+00
  -3.792  0.119E+01  0.340E-01  0.142E+00  0.210E+00  0.405E+00  0.399E+00
  -3.692  0.122E+01  0.351E-01  0.141E+00  0.197E+00  0.423E+00  0.422E+00
  -3.592  0.116E+01  0.367E-01  0.148E+00  0.194E+00  0.388E+00  0.391E+00
  -3.492  0.106E+01  0.388E-01  0.166E+00  0.201E+00  0.324E+00  0.332E+00
  -3.392  0.989E+00  0.412E-01  0.197E+00  0.215E+00  0.262E+00  0.275E+00
  -3.292  0.955E+00  0.427E-01  0.235E+00  0.229E+00  0.216E+00  0.232E+00
  -3.192  0.924E+00  0.412E-01  0.267E+00  0.237E+00  0.183E+00  0.196E+00
  -3.092  0.864E+00  0.356E-01  0.281E+00  0.234E+00  0.156E+00  0.157E+00
  -2.992  0.778E+00  0.274E-01  0.277E+00  0.229E+00  0.130E+00  0.114E+00
  -2.892  0.705E+00  0.194E-01  0.268E+00  0.233E+00  0.109E+00  0.758E-01
  -2.792  0.681E+00  0.146E-01  0.272E+00  0.252E+00  0.931E-01  0.497E-01
  -2.692  0.699E+00  0.149E-01  0.287E+00  0.276E+00  0.835E-01  0.373E-01
  -2.592  0.717E+00  0.235E-01  0.293E+00  0.285E+00  0.789E-01  0.366E-01
  -2.492  0.706E+00  0.467E-01  0.270E+00  0.262E+00  0.793E-01  0.478E-01
  -2.392  0.679E+00  0.907E-01  0.220E+00  0.211E+00  0.858E-01  0.722E-01
  -2.292  0.674E+00  0.156E+00  0.158E+00  0.152E+00  0.996E-01  0.109E+00
  -2.192  0.709E+00  0.232E+00  0.102E+00  0.101E+00  0.121E+00  0.153E+00
  -2.092  0.770E+00  0.306E+00  0.594E-01  0.622E-01  0.148E+00  0.195E+00
  -1.992  0.833E+00  0.365E+00  0.305E-01  0.350E-01  0.176E+00  0.226E+00
  -1.892  0.874E+00  0.402E+00  0.136E-01  0.172E-01  0.198E+00  0.242E+00
  -1.792  0.889E+00  0.423E+00  0.507E-02  0.706E-02  0.211E+00  0.243E+00
  -1.692  0.906E+00  0.446E+00  0.156E-02  0.237E-02  0.219E+00  0.238E+00
  -1.592  0.959E+00  0.493E+00  0.391E-03  0.633E-03  0.229E+00  0.236E+00
  -1.492  0.105E+01  0.563E+00  0.785E-04  0.134E-03  0.244E+00  0.243E+00
  -1.392  0.113E+01  0.616E+00  0.125E-04  0.220E-04  0.258E+00  0.254E+00
  -1.292  0.111E+01  0.595E+00  0.156E-05  0.282E-05  0.260E+00  0.255E+00
  -1.192  0.951E+00  0.480E+00  0.152E-06  0.280E-06  0.238E+00  0.233E+00
  -1.092  0.686E+00  0.312E+00  0.115E-07  0.214E-07  0.189E+00  0.186E+00
  -0.992  0.408E+00  0.161E+00  0.677E-09  0.127E-08  0.125E+00  0.123E+00
  -0.892  0.197E+00  0.646E-01  0.323E-10  0.593E-10  0.668E-01  0.661E-01
  -0.792  0.769E-01  0.202E-01  0.183E-11  0.283E-11  0.284E-01  0.282E-01
  -0.692  0.239E-01  0.491E-02  0.270E-12  0.312E-12  0.951E-02  0.944E-02
  -0.592  0.586E-02  0.921E-03  0.600E-13  0.636E-13  0.248E-02  0.246E-02
  -0.492  0.113E-02  0.134E-03  0.117E-13  0.123E-13  0.500E-03  0.498E-03
  -0.392  0.171E-03  0.150E-04  0.178E-14  0.186E-14  0.780E-04  0.776E-04
  -0.292  0.200E-04  0.130E-05  0.211E-15  0.219E-15  0.936E-05  0.932E-05
  -0.192  0.184E-05  0.108E-06  0.241E-16  0.225E-16  0.867E-06  0.863E-06
  -0.092  0.546E-06  0.332E-06  0.872E-16  0.472E-16  0.115E-06  0.996E-07
   0.008  0.544E-05  0.419E-05  0.117E-14  0.627E-15  0.728E-06  0.527E-06
   0.108  0.542E-04  0.412E-04  0.123E-13  0.661E-14  0.756E-05  0.544E-05
   0.208  0.416E-03  0.312E-03  0.117E-12  0.714E-13  0.606E-04  0.435E-04
   0.308  0.246E-02  0.182E-02  0.197E-11  0.165E-11  0.375E-03  0.268E-03
   0.408  0.113E-01  0.820E-02  0.498E-10  0.465E-10  0.179E-02  0.128E-02
   0.508  0.401E-01  0.287E-01  0.123E-08  0.117E-08  0.665E-02  0.474E-02
   0.608  0.112E+00  0.786E-01  0.246E-07  0.232E-07  0.193E-01  0.138E-01
   0.708  0.246E+00  0.170E+00  0.378E-06  0.355E-06  0.444E-01  0.320E-01
   0.808  0.440E+00  0.296E+00  0.450E-05  0.417E-05  0.828E-01  0.605E-01
   0.908  0.653E+00  0.426E+00  0.413E-04  0.377E-04  0.130E+00  0.971E-01
   1.008  0.848E+00  0.524E+00  0.293E-03  0.263E-03  0.185E+00  0.139E+00
   1.108  0.102E+01  0.570E+00  0.162E-02  0.142E-02  0.259E+00  0.185E+00
   1.208  0.119E+01  0.565E+00  0.699E-02  0.594E-02  0.374E+00  0.241E+00
   1.308  0.141E+01  0.520E+00  0.237E-01  0.195E-01  0.533E+00  0.309E+00
   1.408  0.164E+01  0.452E+00  0.639E-01  0.505E-01  0.693E+00  0.382E+00
   1.508  0.184E+01  0.384E+00  0.138E+00  0.105E+00  0.774E+00  0.439E+00
   1.608  0.195E+01  0.333E+00  0.245E+00  0.179E+00  0.728E+00  0.464E+00
   1.708  0.198E+01  0.307E+00  0.366E+00  0.259E+00  0.589E+00  0.456E+00
   1.808  0.199E+01  0.304E+00  0.474E+00  0.330E+00  0.442E+00  0.436E+00
   1.908  0.202E+01  0.314E+00  0.549E+00  0.383E+00  0.349E+00  0.424E+00
   2.008  0.204E+01  0.316E+00  0.576E+00  0.405E+00  0.318E+00  0.424E+00
   2.108  0.197E+01  0.289E+00  0.547E+00  0.390E+00  0.320E+00  0.421E+00
   2.208  0.175E+01  0.230E+00  0.466E+00  0.341E+00  0.320E+00  0.397E+00
   2.308  0.144E+01  0.157E+00  0.360E+00  0.278E+00  0.298E+00  0.347E+00
   2.408  0.113E+01  0.949E-01  0.267E+00  0.224E+00  0.257E+00  0.284E+00
   2.508  0.893E+00  0.529E-01  0.206E+00  0.190E+00  0.216E+00  0.229E+00
   2.608  0.769E+00  0.291E-01  0.180E+00  0.175E+00  0.190E+00  0.195E+00
   2.708  0.727E+00  0.163E-01  0.178E+00  0.174E+00  0.179E+00  0.180E+00
   2.808  0.717E+00  0.923E-02  0.191E+00  0.180E+00  0.168E+00  0.168E+00
   2.908  0.689E+00  0.500E-02  0.205E+00  0.190E+00  0.145E+00  0.144E+00
   3.008  0.621E+00  0.246E-02  0.208E+00  0.198E+00  0.107E+00  0.106E+00
   3.108  0.526E+00  0.106E-02  0.194E+00  0.203E+00  0.643E-01  0.640E-01
   3.208  0.441E+00  0.384E-03  0.172E+00  0.207E+00  0.310E-01  0.309E-01
   3.308  0.395E+00  0.115E-03  0.153E+00  0.218E+00  0.118E-01  0.117E-01
   3.408  0.394E+00  0.277E-04  0.145E+00  0.241E+00  0.348E-02  0.347E-02
   3.508  0.423E+00  0.536E-05  0.147E+00  0.274E+00  0.799E-03  0.797E-03
   3.608  0.453E+00  0.132E-05  0.151E+00  0.302E+00  0.142E-03  0.141E-03
   3.708  0.455E+00  0.479E-05  0.148E+00  0.307E+00  0.194E-04  0.194E-04
   3.808  0.419E+00  0.335E-04  0.136E+00  0.283E+00  0.228E-05  0.227E-05
   3.908  0.362E+00  0.184E-03  0.121E+00  0.241E+00  0.167E-05  0.168E-05
   4.008  0.310E+00  0.779E-03  0.109E+00  0.200E+00  0.742E-05  0.745E-05
   4.108  0.280E+00  0.256E-02  0.105E+00  0.173E+00  0.287E-04  0.289E-04
   4.208  0.276E+00  0.655E-02  0.109E+00  0.160E+00  0.884E-04  0.891E-04
   4.308  0.293E+00  0.132E-01  0.121E+00  0.158E+00  0.219E-03  0.221E-03
   4.408  0.315E+00  0.212E-01  0.133E+00  0.160E+00  0.442E-03  0.450E-03
   4.508  0.322E+00  0.276E-01  0.138E+00  0.156E+00  0.748E-03  0.773E-03
   4.608  0.294E+00  0.304E-01  0.125E+00  0.136E+00  0.110E-02  0.120E-02
   4.708  0.229E+00  0.295E-01  0.954E-01  0.101E+00  0.150E-02  0.186E-02
   4.808  0.154E+00  0.272E-01  0.592E-01  0.618E-01  0.208E-02  0.322E-02
   4.908  0.949E-01  0.257E-01  0.296E-01  0.305E-01  0.311E-02  0.605E-02
   5.008  0.657E-01  0.257E-01  0.120E-01  0.124E-01  0.475E-02  0.108E-01
   5.108  0.594E-01  0.269E-01  0.442E-02  0.452E-02  0.679E-02  0.167E-01
   5.208  0.621E-01  0.278E-01  0.196E-02  0.201E-02  0.857E-02  0.218E-01
   5.308  0.639E-01  0.277E-01  0.138E-02  0.144E-02  0.946E-02  0.240E-01
   5.408  0.625E-01  0.273E-01  0.131E-02  0.136E-02  0.939E-02  0.231E-01
   5.508  0.608E-01  0.287E-01  0.132E-02  0.138E-02  0.882E-02  0.206E-01
   5.608  0.618E-01  0.329E-01  0.133E-02  0.140E-02  0.828E-02  0.179E-01
   5.708  0.656E-01  0.387E-01  0.134E-02  0.141E-02  0.813E-02  0.160E-01
   5.808  0.696E-01  0.432E-01  0.134E-02  0.140E-02  0.862E-02  0.150E-01
   5.908  0.719E-01  0.442E-01  0.134E-02  0.139E-02  0.101E-01  0.149E-01
   6.008  0.730E-01  0.418E-01  0.137E-02  0.138E-02  0.129E-01  0.156E-01
   6.108  0.743E-01  0.379E-01  0.146E-02  0.137E-02  0.167E-01  0.169E-01
   6.208  0.752E-01  0.338E-01  0.173E-02  0.143E-02  0.204E-01  0.178E-01
   6.308  0.737E-01  0.300E-01  0.232E-02  0.158E-02  0.223E-01  0.175E-01
   6.408  0.696E-01  0.262E-01  0.330E-02  0.187E-02  0.222E-01  0.161E-01
   6.508  0.651E-01  0.229E-01  0.450E-02  0.226E-02  0.209E-01  0.146E-01
   6.608  0.623E-01  0.203E-01  0.552E-02  0.265E-02  0.196E-01  0.142E-01
   6.708  0.608E-01  0.184E-01  0.592E-02  0.290E-02  0.185E-01  0.151E-01
   6.808  0.582E-01  0.167E-01  0.562E-02  0.297E-02  0.169E-01  0.161E-01
   6.908  0.533E-01  0.148E-01  0.492E-02  0.296E-02  0.144E-01  0.162E-01
   7.008  0.472E-01  0.129E-01  0.430E-02  0.295E-02  0.117E-01  0.153E-01
   7.108  0.425E-01  0.116E-01  0.409E-02  0.305E-02  0.965E-02  0.141E-01
   7.208  0.414E-01  0.114E-01  0.453E-02  0.331E-02  0.887E-02  0.133E-01
   7.308  0.449E-01  0.125E-01  0.582E-02  0.381E-02  0.924E-02  0.135E-01
   7.408  0.517E-01  0.142E-01  0.804E-02  0.458E-02  0.103E-01  0.145E-01
   7.508  0.588E-01  0.153E-01  0.108E-01  0.551E-02  0.114E-01  0.158E-01
   7.608  0.629E-01  0.149E-01  0.133E-01  0.635E-02  0.119E-01  0.164E-01
   7.708  0.627E-01  0.131E-01  0.156E-01  0.706E-02  0.114E-01  0.155E-01
   7.808  0.612E-01  0.107E-01  0.188E-01  0.811E-02  0.104E-01  0.131E-01
   7.908  0.651E-01  0.917E-02  0.260E-01  0.105E-01  0.920E-02  0.103E-01
   8.008  0.809E-01  0.987E-02  0.396E-01  0.151E-01  0.837E-02  0.795E-02
   8.108  0.108E+00  0.140E-01  0.582E-01  0.213E-01  0.798E-02  0.669E-02
   8.208  0.137E+00  0.216E-01  0.740E-01  0.267E-01  0.797E-02  0.649E-02
   8.308  0.152E+00  0.303E-01  0.777E-01  0.281E-01  0.838E-02  0.726E-02
   8.408  0.146E+00  0.367E-01  0.667E-01  0.245E-01  0.929E-02  0.913E-02
   8.508  0.128E+00  0.389E-01  0.477E-01  0.185E-01  0.108E-01  0.125E-01
   8.608  0.112E+00  0.375E-01  0.307E-01  0.133E-01  0.127E-01  0.176E-01
   8.708  0.104E+00  0.342E-01  0.204E-01  0.107E-01  0.148E-01  0.239E-01
   8.808  0.103E+00  0.304E-01  0.159E-01  0.100E-01  0.166E-01  0.298E-01
   8.908  0.103E+00  0.271E-01  0.147E-01  0.101E-01  0.179E-01  0.332E-01
   9.008  0.102E+00  0.253E-01  0.150E-01  0.102E-01  0.184E-01  0.332E-01
   9.108  0.101E+00  0.255E-01  0.164E-01  0.104E-01  0.185E-01  0.304E-01
   9.208  0.101E+00  0.264E-01  0.185E-01  0.107E-01  0.186E-01  0.267E-01
   9.308  0.100E+00  0.258E-01  0.208E-01  0.110E-01  0.188E-01  0.236E-01
   9.408  0.970E-01  0.224E-01  0.222E-01  0.110E-01  0.196E-01  0.218E-01
   9.508  0.915E-01  0.172E-01  0.213E-01  0.105E-01  0.209E-01  0.217E-01
   9.608  0.854E-01  0.123E-01  0.180E-01  0.938E-02  0.227E-01  0.230E-01
   9.708  0.800E-01  0.886E-02  0.137E-01  0.830E-02  0.245E-01  0.246E-01
   9.808  0.752E-01  0.716E-02  0.102E-01  0.775E-02  0.251E-01  0.250E-01
   9.908  0.710E-01  0.697E-02  0.848E-02  0.798E-02  0.241E-01  0.235E-01
  10.008  0.686E-01  0.819E-02  0.860E-02  0.901E-02  0.219E-01  0.209E-01
  10.108  0.702E-01  0.108E-01  0.103E-01  0.108E-01  0.198E-01  0.186E-01
  10.208  0.769E-01  0.142E-01  0.135E-01  0.132E-01  0.184E-01  0.176E-01
  10.308  0.864E-01  0.175E-01  0.176E-01  0.158E-01  0.176E-01  0.178E-01
  10.408  0.942E-01  0.191E-01  0.221E-01  0.176E-01  0.171E-01  0.183E-01
  10.508  0.972E-01  0.183E-01  0.257E-01  0.177E-01  0.169E-01  0.187E-01
  10.608  0.955E-01  0.159E-01  0.278E-01  0.162E-01  0.170E-01  0.186E-01
  10.708  0.929E-01  0.143E-01  0.286E-01  0.142E-01  0.172E-01  0.185E-01
  10.808  0.935E-01  0.151E-01  0.289E-01  0.132E-01  0.176E-01  0.186E-01
  10.908  0.990E-01  0.188E-01  0.291E-01  0.138E-01  0.181E-01  0.193E-01
  11.008  0.107E+00  0.237E-01  0.286E-01  0.156E-01  0.188E-01  0.207E-01
  11.108  0.115E+00  0.275E-01  0.271E-01  0.178E-01  0.195E-01  0.228E-01
  11.208  0.118E+00  0.287E-01  0.249E-01  0.193E-01  0.201E-01  0.249E-01
  11.308  0.117E+00  0.278E-01  0.224E-01  0.193E-01  0.207E-01  0.267E-01
  11.408  0.114E+00  0.273E-01  0.198E-01  0.179E-01  0.214E-01  0.274E-01
  11.508  0.112E+00  0.295E-01  0.181E-01  0.159E-01  0.219E-01  0.271E-01
  11.608  0.115E+00  0.344E-01  0.183E-01  0.151E-01  0.217E-01  0.258E-01
  11.708  0.123E+00  0.403E-01  0.212E-01  0.168E-01  0.207E-01  0.241E-01
  11.808  0.134E+00  0.448E-01  0.264E-01  0.214E-01  0.195E-01  0.223E-01
  11.908  0.147E+00  0.471E-01  0.323E-01  0.280E-01  0.190E-01  0.206E-01
  12.008  0.156E+00  0.474E-01  0.361E-01  0.338E-01  0.196E-01  0.190E-01
  12.108  0.155E+00  0.456E-01  0.355E-01  0.355E-01  0.208E-01  0.175E-01
  12.208  0.139E+00  0.411E-01  0.300E-01  0.313E-01  0.210E-01  0.158E-01
  12.308  0.112E+00  0.339E-01  0.217E-01  0.230E-01  0.194E-01  0.140E-01
  12.408  0.844E-01  0.267E-01  0.140E-01  0.146E-01  0.165E-01  0.126E-01
  12.508  0.680E-01  0.226E-01  0.911E-02  0.896E-02  0.144E-01  0.129E-01
  12.608  0.657E-01  0.226E-01  0.685E-02  0.646E-02  0.147E-01  0.151E-01
  12.708  0.705E-01  0.243E-01  0.624E-02  0.607E-02  0.163E-01  0.176E-01
  12.808  0.725E-01  0.243E-01  0.643E-02  0.674E-02  0.170E-01  0.180E-01
  12.908  0.664E-01  0.209E-01  0.702E-02  0.777E-02  0.152E-01  0.155E-01
  13.008  0.550E-01  0.154E-01  0.777E-02  0.871E-02  0.118E-01  0.114E-01
  13.108  0.445E-01  0.103E-01  0.863E-02  0.930E-02  0.843E-02  0.779E-02
  13.208  0.391E-01  0.735E-02  0.974E-02  0.956E-02  0.653E-02  0.589E-02
  13.308  0.392E-01  0.641E-02  0.113E-01  0.973E-02  0.607E-02  0.563E-02
  13.408  0.425E-01  0.651E-02  0.134E-01  0.100E-01  0.631E-02  0.626E-02
  13.508  0.466E-01  0.678E-02  0.155E-01  0.106E-01  0.655E-02  0.715E-02
  13.608  0.500E-01  0.688E-02  0.171E-01  0.112E-01  0.667E-02  0.813E-02
  13.708  0.529E-01  0.681E-02  0.177E-01  0.120E-01  0.709E-02  0.928E-02
  13.808  0.559E-01  0.647E-02  0.177E-01  0.129E-01  0.829E-02  0.105E-01
  13.908  0.600E-01  0.580E-02  0.177E-01  0.146E-01  0.105E-01  0.115E-01
  14.008  0.661E-01  0.494E-02  0.182E-01  0.177E-01  0.133E-01  0.120E-01
  14.108  0.738E-01  0.415E-02  0.195E-01  0.224E-01  0.157E-01  0.121E-01
  14.208  0.809E-01  0.358E-02  0.212E-01  0.276E-01  0.168E-01  0.117E-01
  14.308  0.842E-01  0.319E-02  0.222E-01  0.315E-01  0.164E-01  0.110E-01
  14.408  0.822E-01  0.298E-02  0.218E-01  0.324E-01  0.150E-01  0.101E-01
  14.508  0.765E-01  0.301E-02  0.202E-01  0.303E-01  0.135E-01  0.941E-02
  14.608  0.696E-01  0.325E-02  0.182E-01  0.269E-01  0.124E-01  0.893E-02
  14.708  0.638E-01  0.356E-02  0.163E-01  0.236E-01  0.116E-01  0.866E-02
  14.808  0.596E-01  0.377E-02  0.148E-01  0.214E-01  0.111E-01  0.850E-02
  14.908  0.572E-01  0.386E-02  0.136E-01  0.205E-01  0.108E-01  0.841E-02
  15.008  0.571E-01  0.397E-02  0.131E-01  0.209E-01  0.107E-01  0.847E-02
  15.108  0.599E-01  0.427E-02  0.135E-01  0.224E-01  0.108E-01  0.883E-02
  15.208  0.657E-01  0.473E-02  0.153E-01  0.248E-01  0.113E-01  0.955E-02
  15.308  0.739E-01  0.516E-02  0.186E-01  0.274E-01  0.121E-01  0.106E-01
  15.408  0.851E-01  0.545E-02  0.238E-01  0.306E-01  0.133E-01  0.119E-01
  15.508  0.100E+00  0.567E-02  0.307E-01  0.351E-01  0.151E-01  0.136E-01
  15.608  0.118E+00  0.596E-02  0.381E-01  0.403E-01  0.179E-01  0.159E-01
  15.708  0.135E+00  0.628E-02  0.435E-01  0.440E-01  0.221E-01  0.189E-01
  15.808  0.144E+00  0.632E-02  0.444E-01  0.438E-01  0.268E-01  0.222E-01
  15.908  0.143E+00  0.575E-02  0.410E-01  0.399E-01  0.309E-01  0.252E-01
  16.008  0.136E+00  0.462E-02  0.358E-01  0.346E-01  0.335E-01  0.278E-01
  16.108  0.131E+00  0.339E-02  0.309E-01  0.298E-01  0.357E-01  0.310E-01
  16.208  0.129E+00  0.249E-02  0.268E-01  0.262E-01  0.383E-01  0.349E-01
  16.308  0.126E+00  0.207E-02  0.234E-01  0.236E-01  0.395E-01  0.372E-01
  16.408  0.115E+00  0.203E-02  0.205E-01  0.217E-01  0.365E-01  0.346E-01
  16.508  0.961E-01  0.224E-02  0.184E-01  0.203E-01  0.284E-01  0.267E-01
  16.608  0.745E-01  0.254E-02  0.171E-01  0.195E-01  0.185E-01  0.169E-01
  16.708  0.574E-01  0.278E-02  0.162E-01  0.190E-01  0.103E-01  0.910E-02
  16.808  0.472E-01  0.291E-02  0.155E-01  0.187E-01  0.542E-02  0.466E-02
  16.908  0.422E-01  0.298E-02  0.145E-01  0.186E-01  0.316E-02  0.295E-02
  17.008  0.403E-01  0.314E-02  0.132E-01  0.186E-01  0.244E-02  0.283E-02
  17.108  0.402E-01  0.339E-02  0.120E-01  0.191E-01  0.240E-02  0.342E-02
  17.208  0.415E-01  0.355E-02  0.111E-01  0.203E-01  0.250E-02  0.404E-02
  17.308  0.443E-01  0.343E-02  0.113E-01  0.230E-01  0.247E-02  0.419E-02
  17.408  0.493E-01  0.306E-02  0.126E-01  0.276E-01  0.227E-02  0.378E-02
  17.508  0.562E-01  0.266E-02  0.148E-01  0.336E-01  0.200E-02  0.309E-02
  17.608  0.622E-01  0.245E-02  0.169E-01  0.387E-01  0.176E-02  0.247E-02
  17.708  0.629E-01  0.245E-02  0.174E-01  0.394E-01  0.158E-02  0.211E-02
  17.808  0.560E-01  0.261E-02  0.158E-01  0.341E-01  0.147E-02  0.199E-02
  17.908  0.446E-01  0.286E-02  0.132E-01  0.251E-01  0.141E-02  0.202E-02
  18.008  0.340E-01  0.322E-02  0.108E-01  0.164E-01  0.142E-02  0.214E-02
  18.108  0.271E-01  0.364E-02  0.925E-02  0.104E-01  0.154E-02  0.235E-02
  18.208  0.233E-01  0.389E-02  0.798E-02  0.705E-02  0.177E-02  0.266E-02
  18.308  0.206E-01  0.374E-02  0.659E-02  0.524E-02  0.207E-02  0.298E-02
  18.408  0.180E-01  0.318E-02  0.523E-02  0.412E-02  0.230E-02  0.319E-02
  18.508  0.156E-01  0.251E-02  0.418E-02  0.339E-02  0.236E-02  0.317E-02
  18.608  0.138E-01  0.214E-02  0.350E-02  0.293E-02  0.226E-02  0.297E-02
  18.708  0.130E-01  0.243E-02  0.310E-02  0.265E-02  0.209E-02  0.276E-02
  18.808  0.137E-01  0.354E-02  0.296E-02  0.253E-02  0.200E-02  0.271E-02
  18.908  0.160E-01  0.529E-02  0.322E-02  0.262E-02  0.201E-02  0.287E-02
  19.008  0.195E-01  0.714E-02  0.409E-02  0.309E-02  0.205E-02  0.313E-02
  19.108  0.235E-01  0.850E-02  0.562E-02  0.402E-02  0.205E-02  0.333E-02
  19.208  0.270E-01  0.898E-02  0.737E-02  0.521E-02  0.201E-02  0.339E-02
  19.308  0.286E-01  0.847E-02  0.864E-02  0.620E-02  0.193E-02  0.334E-02
  19.408  0.276E-01  0.707E-02  0.894E-02  0.656E-02  0.185E-02  0.322E-02
  19.508  0.245E-01  0.521E-02  0.833E-02  0.620E-02  0.175E-02  0.300E-02
  19.608  0.203E-01  0.344E-02  0.722E-02  0.538E-02  0.158E-02  0.268E-02
  19.708  0.164E-01  0.214E-02  0.604E-02  0.446E-02  0.139E-02  0.233E-02
  19.808  0.133E-01  0.136E-02  0.499E-02  0.370E-02  0.122E-02  0.208E-02
  19.908  0.114E-01  0.100E-02  0.417E-02  0.315E-02  0.114E-02  0.197E-02
  20.008  0.105E-01  0.952E-03  0.358E-02  0.282E-02  0.115E-02  0.198E-02
  20.108  0.103E-01  0.117E-02  0.323E-02  0.264E-02  0.121E-02  0.206E-02
  20.208  0.109E-01  0.165E-02  0.307E-02  0.262E-02  0.132E-02  0.222E-02
  20.308  0.121E-01  0.233E-02  0.314E-02  0.280E-02  0.144E-02  0.241E-02
  20.408  0.139E-01  0.303E-02  0.349E-02  0.327E-02  0.152E-02  0.257E-02
  20.508  0.159E-01  0.350E-02  0.420E-02  0.407E-02  0.153E-02  0.260E-02
  20.608  0.177E-01  0.356E-02  0.515E-02  0.505E-02  0.148E-02  0.249E-02
  20.708  0.188E-01  0.325E-02  0.596E-02  0.586E-02  0.141E-02  0.228E-02
  20.808  0.186E-01  0.277E-02  0.624E-02  0.616E-02  0.133E-02  0.206E-02
  20.908  0.173E-01  0.235E-02  0.592E-02  0.584E-02  0.127E-02  0.190E-02
  21.008  0.155E-01  0.206E-02  0.526E-02  0.512E-02  0.124E-02  0.181E-02
  21.108  0.138E-01  0.187E-02  0.462E-02  0.431E-02  0.124E-02  0.176E-02
  21.208  0.125E-01  0.169E-02  0.416E-02  0.364E-02  0.126E-02  0.171E-02
  21.308  0.115E-01  0.151E-02  0.385E-02  0.315E-02  0.131E-02  0.169E-02
  21.408  0.109E-01  0.136E-02  0.361E-02  0.282E-02  0.139E-02  0.171E-02
  21.508  0.106E-01  0.127E-02  0.346E-02  0.261E-02  0.149E-02  0.181E-02
  21.608  0.108E-01  0.122E-02  0.346E-02  0.252E-02  0.159E-02  0.202E-02
  21.708  0.111E-01  0.112E-02  0.359E-02  0.251E-02  0.167E-02  0.225E-02
  21.808  0.112E-01  0.932E-03  0.368E-02  0.253E-02  0.168E-02  0.238E-02
  21.908  0.108E-01  0.712E-03  0.362E-02  0.258E-02  0.157E-02  0.230E-02
  22.008  0.100E-01  0.549E-03  0.339E-02  0.265E-02  0.139E-02  0.205E-02
  22.108  0.949E-02  0.500E-03  0.311E-02  0.276E-02  0.126E-02  0.185E-02
  22.208  0.941E-02  0.569E-03  0.285E-02  0.285E-02  0.127E-02  0.188E-02
  22.308  0.977E-02  0.741E-03  0.262E-02  0.284E-02  0.144E-02  0.213E-02
  22.408  0.103E-01  0.102E-02  0.245E-02  0.275E-02  0.171E-02  0.242E-02
  22.508  0.110E-01  0.142E-02  0.235E-02  0.267E-02  0.195E-02  0.259E-02
  22.608  0.116E-01  0.193E-02  0.230E-02  0.268E-02  0.212E-02  0.261E-02
  22.708  0.122E-01  0.246E-02  0.225E-02  0.277E-02  0.223E-02  0.252E-02
  22.808  0.125E-01  0.278E-02  0.218E-02  0.285E-02  0.226E-02  0.239E-02
  22.908  0.120E-01  0.270E-02  0.210E-02  0.284E-02  0.214E-02  0.219E-02
  23.008  0.108E-01  0.225E-02  0.212E-02  0.275E-02  0.184E-02  0.187E-02
  23.108  0.959E-02  0.165E-02  0.233E-02  0.270E-02  0.143E-02  0.149E-02
  23.208  0.903E-02  0.115E-02  0.284E-02  0.284E-02  0.105E-02  0.115E-02
  23.308  0.948E-02  0.856E-03  0.366E-02  0.326E-02  0.785E-03  0.921E-03
  23.408  0.107E-01  0.714E-03  0.465E-02  0.385E-02  0.655E-03  0.834E-03
  23.508  0.120E-01  0.661E-03  0.545E-02  0.436E-02  0.640E-03  0.884E-03
  23.608  0.127E-01  0.664E-03  0.572E-02  0.454E-02  0.721E-03  0.106E-02
  23.708  0.125E-01  0.700E-03  0.536E-02  0.429E-02  0.878E-03  0.131E-02
  23.808  0.116E-01  0.741E-03  0.453E-02  0.372E-02  0.106E-02  0.156E-02
  23.908  0.103E-01  0.757E-03  0.355E-02  0.306E-02  0.122E-02  0.171E-02
  24.008  0.907E-02  0.745E-03  0.272E-02  0.256E-02  0.131E-02  0.174E-02
  24.108  0.832E-02  0.738E-03  0.221E-02  0.236E-02  0.134E-02  0.168E-02
  24.208  0.817E-02  0.775E-03  0.204E-02  0.245E-02  0.133E-02  0.157E-02
  24.308  0.841E-02  0.867E-03  0.209E-02  0.268E-02  0.133E-02  0.145E-02
  24.408  0.869E-02  0.985E-03  0.216E-02  0.280E-02  0.138E-02  0.137E-02
  24.508  0.869E-02  0.109E-02  0.212E-02  0.265E-02  0.150E-02  0.133E-02
  24.608  0.840E-02  0.117E-02  0.201E-02  0.231E-02  0.161E-02  0.131E-02
  24.708  0.805E-02  0.123E-02  0.196E-02  0.199E-02  0.162E-02  0.125E-02
  24.808  0.787E-02  0.130E-02  0.206E-02  0.181E-02  0.152E-02  0.118E-02
  24.908  0.800E-02  0.143E-02  0.227E-02  0.178E-02  0.138E-02  0.114E-02
  25.008  0.847E-02  0.165E-02  0.250E-02  0.181E-02  0.132E-02  0.118E-02
  25.108  0.914E-02  0.193E-02  0.267E-02  0.185E-02  0.138E-02  0.131E-02
  25.208  0.970E-02  0.220E-02  0.272E-02  0.185E-02  0.151E-02  0.143E-02
  25.308  0.983E-02  0.234E-02  0.260E-02  0.180E-02  0.162E-02  0.147E-02
  25.408  0.946E-02  0.234E-02  0.232E-02  0.171E-02  0.168E-02  0.141E-02
  25.508  0.884E-02  0.220E-02  0.194E-02  0.165E-02  0.173E-02  0.131E-02
  25.608  0.834E-02  0.202E-02  0.161E-02  0.171E-02  0.176E-02  0.124E-02
  25.708  0.818E-02  0.189E-02  0.143E-02  0.190E-02  0.173E-02  0.123E-02
  25.808  0.830E-02  0.184E-02  0.140E-02  0.216E-02  0.161E-02  0.129E-02
  25.908  0.848E-02  0.186E-02  0.145E-02  0.234E-02  0.144E-02  0.140E-02
  26.008  0.845E-02  0.185E-02  0.148E-02  0.235E-02  0.126E-02  0.150E-02
  26.108  0.809E-02  0.177E-02  0.148E-02  0.221E-02  0.111E-02  0.152E-02
  26.208  0.750E-02  0.161E-02  0.146E-02  0.201E-02  0.997E-03  0.143E-02
  26.308  0.686E-02  0.142E-02  0.144E-02  0.184E-02  0.907E-03  0.126E-02
  26.408  0.628E-02  0.123E-02  0.141E-02  0.174E-02  0.835E-03  0.106E-02
  26.508  0.577E-02  0.109E-02  0.138E-02  0.167E-02  0.767E-03  0.867E-03
  26.608  0.534E-02  0.985E-03  0.134E-02  0.159E-02  0.698E-03  0.725E-03
  26.708  0.504E-02  0.929E-03  0.131E-02  0.153E-02  0.635E-03  0.637E-03
  26.808  0.500E-02  0.887E-03  0.138E-02  0.155E-02  0.590E-03  0.589E-03
  26.908  0.527E-02  0.821E-03  0.161E-02  0.170E-02  0.571E-03  0.573E-03
  27.008  0.578E-02  0.722E-03  0.194E-02  0.195E-02  0.583E-03  0.583E-03
  27.108  0.628E-02  0.619E-03  0.224E-02  0.219E-02  0.621E-03  0.609E-03
  27.208  0.654E-02  0.549E-03  0.237E-02  0.232E-02  0.665E-03  0.632E-03
  27.308  0.638E-02  0.526E-03  0.226E-02  0.228E-02  0.691E-03  0.627E-03
  27.408  0.585E-02  0.536E-03  0.199E-02  0.205E-02  0.681E-03  0.589E-03
  27.508  0.510E-02  0.558E-03  0.167E-02  0.170E-02  0.637E-03  0.534E-03
  27.608  0.437E-02  0.580E-03  0.143E-02  0.131E-02  0.573E-03  0.484E-03
  27.708  0.389E-02  0.601E-03  0.132E-02  0.101E-02  0.506E-03  0.454E-03
  27.808  0.369E-02  0.627E-03  0.132E-02  0.853E-03  0.454E-03  0.443E-03
  27.908  0.367E-02  0.657E-03  0.135E-02  0.804E-03  0.425E-03  0.435E-03
  28.008  0.368E-02  0.683E-03  0.135E-02  0.812E-03  0.420E-03  0.417E-03
  28.108  0.367E-02  0.701E-03  0.130E-02  0.842E-03  0.432E-03  0.392E-03
  28.208  0.367E-02  0.716E-03  0.123E-02  0.884E-03  0.459E-03  0.374E-03
  28.308  0.372E-02  0.740E-03  0.118E-02  0.942E-03  0.493E-03  0.371E-03
  28.408  0.383E-02  0.768E-03  0.115E-02  0.102E-02  0.517E-03  0.378E-03
  28.508  0.391E-02  0.784E-03  0.113E-02  0.109E-02  0.515E-03  0.389E-03
  28.608  0.388E-02  0.781E-03  0.109E-02  0.111E-02  0.486E-03  0.408E-03
  28.708  0.373E-02  0.769E-03  0.100E-02  0.107E-02  0.448E-03  0.442E-03
  28.808  0.355E-02  0.757E-03  0.875E-03  0.101E-02  0.416E-03  0.491E-03
  28.908  0.342E-02  0.754E-03  0.769E-03  0.970E-03  0.394E-03  0.534E-03
  29.008  0.341E-02  0.790E-03  0.721E-03  0.978E-03  0.372E-03  0.548E-03
  29.108  0.352E-02  0.905E-03  0.728E-03  0.100E-02  0.353E-03  0.529E-03
  29.208  0.372E-02  0.108E-02  0.763E-03  0.102E-02  0.353E-03  0.499E-03
  29.308  0.399E-02  0.125E-02  0.815E-03  0.103E-02  0.407E-03  0.491E-03
  29.408  0.435E-02  0.131E-02  0.892E-03  0.107E-02  0.548E-03  0.533E-03
  29.508  0.486E-02  0.128E-02  0.100E-02  0.117E-02  0.773E-03  0.632E-03
  29.608  0.544E-02  0.121E-02  0.115E-02  0.130E-02  0.101E-02  0.762E-03
  29.708  0.594E-02  0.113E-02  0.133E-02  0.143E-02  0.117E-02  0.876E-03
  29.808  0.622E-02  0.106E-02  0.152E-02  0.153E-02  0.118E-02  0.936E-03
  29.908  0.624E-02  0.101E-02  0.165E-02  0.156E-02  0.108E-02  0.942E-03
  30.008  0.605E-02  0.984E-03  0.170E-02  0.150E-02  0.950E-03  0.918E-03
  30.108  0.571E-02  0.980E-03  0.163E-02  0.138E-02  0.837E-03  0.882E-03
  30.208  0.524E-02  0.969E-03  0.146E-02  0.123E-02  0.744E-03  0.837E-03
  30.308  0.473E-02  0.938E-03  0.127E-02  0.109E-02  0.657E-03  0.776E-03
  30.408  0.434E-02  0.907E-03  0.114E-02  0.100E-02  0.579E-03  0.704E-03
  30.508  0.420E-02  0.901E-03  0.114E-02  0.991E-03  0.521E-03  0.641E-03
  30.608  0.434E-02  0.944E-03  0.125E-02  0.105E-02  0.484E-03  0.614E-03
  30.708  0.473E-02  0.105E-02  0.142E-02  0.116E-02  0.457E-03  0.638E-03
  30.808  0.528E-02  0.123E-02  0.161E-02  0.129E-02  0.434E-03  0.707E-03
  30.908  0.585E-02  0.144E-02  0.178E-02  0.142E-02  0.416E-03  0.784E-03
  31.008  0.617E-02  0.158E-02  0.188E-02  0.149E-02  0.400E-03  0.816E-03
  31.108  0.603E-02  0.156E-02  0.184E-02  0.146E-02  0.387E-03  0.778E-03
  31.208  0.547E-02  0.139E-02  0.168E-02  0.132E-02  0.386E-03  0.696E-03
  31.308  0.480E-02  0.114E-02  0.147E-02  0.117E-02  0.401E-03  0.616E-03
  31.408  0.430E-02  0.932E-03  0.131E-02  0.107E-02  0.431E-03  0.563E-03
  31.508  0.401E-02  0.827E-03  0.118E-02  0.101E-02  0.460E-03  0.530E-03
  31.608  0.381E-02  0.839E-03  0.102E-02  0.962E-03  0.477E-03  0.507E-03
  31.708  0.362E-02  0.942E-03  0.822E-03  0.901E-03  0.475E-03  0.483E-03
  31.808  0.346E-02  0.108E-02  0.632E-03  0.837E-03  0.454E-03  0.457E-03
  31.908  0.331E-02  0.119E-02  0.498E-03  0.772E-03  0.425E-03  0.426E-03
  32.008  0.314E-02  0.124E-02  0.425E-03  0.690E-03  0.395E-03  0.393E-03
  32.108  0.293E-02  0.123E-02  0.391E-03  0.582E-03  0.368E-03  0.365E-03
  32.208  0.272E-02  0.119E-02  0.375E-03  0.465E-03  0.346E-03  0.346E-03
  32.308  0.253E-02  0.113E-02  0.369E-03  0.372E-03  0.326E-03  0.332E-03
  32.408  0.236E-02  0.105E-02  0.368E-03  0.325E-03  0.300E-03  0.316E-03
  32.508  0.221E-02  0.936E-03  0.376E-03  0.328E-03  0.272E-03  0.296E-03
  32.608  0.214E-02  0.825E-03  0.406E-03  0.372E-03  0.256E-03  0.286E-03
  32.708  0.221E-02  0.740E-03  0.467E-03  0.443E-03  0.265E-03  0.293E-03
  32.808  0.236E-02  0.685E-03  0.553E-03  0.523E-03  0.293E-03  0.308E-03
  32.908  0.252E-02  0.658E-03  0.635E-03  0.593E-03  0.319E-03  0.311E-03
  33.008  0.261E-02  0.653E-03  0.688E-03  0.644E-03  0.323E-03  0.297E-03
  33.108  0.264E-02  0.661E-03  0.718E-03  0.686E-03  0.303E-03  0.273E-03
  33.208  0.270E-02  0.664E-03  0.760E-03  0.748E-03  0.269E-03  0.255E-03
  33.308  0.284E-02  0.651E-03  0.841E-03  0.850E-03  0.242E-03  0.255E-03
  33.408  0.307E-02  0.627E-03  0.955E-03  0.983E-03  0.232E-03  0.276E-03
  33.508  0.334E-02  0.603E-03  0.106E-02  0.111E-02  0.242E-03  0.319E-03
  33.608  0.353E-02  0.591E-03  0.112E-02  0.118E-02  0.261E-03  0.380E-03
  33.708  0.357E-02  0.593E-03  0.109E-02  0.116E-02  0.278E-03  0.445E-03
  33.808  0.342E-02  0.598E-03  0.990E-03  0.106E-02  0.285E-03  0.485E-03
  33.908  0.314E-02  0.592E-03  0.853E-03  0.930E-03  0.285E-03  0.476E-03
  34.008  0.281E-02  0.574E-03  0.717E-03  0.810E-03  0.284E-03  0.423E-03
  34.108  0.253E-02  0.569E-03  0.601E-03  0.707E-03  0.290E-03  0.363E-03
  34.208  0.234E-02  0.595E-03  0.504E-03  0.606E-03  0.300E-03  0.332E-03
  34.308  0.221E-02  0.637E-03  0.421E-03  0.507E-03  0.310E-03  0.340E-03
  34.408  0.213E-02  0.648E-03  0.358E-03  0.429E-03  0.319E-03  0.375E-03
  34.508  0.207E-02  0.598E-03  0.329E-03  0.396E-03  0.330E-03  0.418E-03
  34.608  0.207E-02  0.501E-03  0.343E-03  0.414E-03  0.352E-03  0.457E-03
  34.708  0.217E-02  0.410E-03  0.404E-03  0.475E-03  0.385E-03  0.492E-03
  34.808  0.240E-02  0.377E-03  0.503E-03  0.563E-03  0.422E-03  0.532E-03
  34.908  0.272E-02  0.417E-03  0.624E-03  0.661E-03  0.444E-03  0.572E-03
  35.008  0.301E-02  0.506E-03  0.736E-03  0.746E-03  0.436E-03  0.590E-03
  35.108  0.317E-02  0.599E-03  0.806E-03  0.808E-03  0.396E-03  0.562E-03
  35.208  0.314E-02  0.646E-03  0.823E-03  0.855E-03  0.333E-03  0.487E-03
  35.308  0.296E-02  0.615E-03  0.791E-03  0.899E-03  0.268E-03  0.390E-03
  35.408  0.267E-02  0.513E-03  0.720E-03  0.924E-03  0.215E-03  0.299E-03
  35.508  0.230E-02  0.382E-03  0.617E-03  0.893E-03  0.181E-03  0.232E-03
  35.608  0.192E-02  0.267E-03  0.503E-03  0.795E-03  0.165E-03  0.193E-03
  35.708  0.159E-02  0.189E-03  0.406E-03  0.655E-03  0.159E-03  0.180E-03
  35.808  0.135E-02  0.146E-03  0.345E-03  0.520E-03  0.156E-03  0.183E-03
  35.908  0.122E-02  0.130E-03  0.324E-03  0.418E-03  0.154E-03  0.198E-03
  36.008  0.119E-02  0.131E-03  0.330E-03  0.354E-03  0.155E-03  0.218E-03
  36.108  0.120E-02  0.144E-03  0.343E-03  0.317E-03  0.161E-03  0.236E-03
  36.208  0.122E-02  0.165E-03  0.345E-03  0.293E-03  0.170E-03  0.245E-03
  36.308  0.122E-02  0.194E-03  0.329E-03  0.272E-03  0.179E-03  0.244E-03
  36.408  0.122E-02  0.226E-03  0.309E-03  0.256E-03  0.187E-03  0.239E-03
  36.508  0.123E-02  0.251E-03  0.302E-03  0.251E-03  0.195E-03  0.235E-03
  36.608  0.129E-02  0.259E-03  0.319E-03  0.262E-03  0.209E-03  0.236E-03
  36.708  0.138E-02  0.250E-03  0.353E-03  0.299E-03  0.229E-03  0.244E-03
  36.808  0.148E-02  0.228E-03  0.389E-03  0.364E-03  0.248E-03  0.253E-03
  36.908  0.156E-02  0.200E-03  0.412E-03  0.451E-03  0.251E-03  0.250E-03
  37.008  0.159E-02  0.174E-03  0.419E-03  0.543E-03  0.231E-03  0.227E-03
  37.108  0.158E-02  0.150E-03  0.420E-03  0.619E-03  0.198E-03  0.190E-03
  37.208  0.154E-02  0.129E-03  0.428E-03  0.665E-03  0.167E-03  0.153E-03
  37.308  0.152E-02  0.113E-03  0.454E-03  0.674E-03  0.151E-03  0.129E-03
  37.408  0.152E-02  0.106E-03  0.491E-03  0.650E-03  0.151E-03  0.120E-03
  37.508  0.153E-02  0.116E-03  0.520E-03  0.599E-03  0.164E-03  0.127E-03
  37.608  0.151E-02  0.143E-03  0.512E-03  0.530E-03  0.179E-03  0.144E-03
  37.708  0.144E-02  0.175E-03  0.460E-03  0.453E-03  0.187E-03  0.165E-03
  37.808  0.132E-02  0.199E-03  0.381E-03  0.379E-03  0.182E-03  0.178E-03
  37.908  0.117E-02  0.206E-03  0.304E-03  0.314E-03  0.165E-03  0.176E-03
  38.008  0.101E-02  0.199E-03  0.247E-03  0.261E-03  0.141E-03  0.159E-03
  38.108  0.873E-03  0.189E-03  0.210E-03  0.219E-03  0.117E-03  0.137E-03
  38.208  0.784E-03  0.181E-03  0.192E-03  0.192E-03  0.100E-03  0.119E-03
  38.308  0.744E-03  0.175E-03  0.189E-03  0.181E-03  0.908E-04  0.108E-03
  38.408  0.739E-03  0.172E-03  0.197E-03  0.185E-03  0.848E-04  0.100E-03
  38.508  0.746E-03  0.172E-03  0.207E-03  0.196E-03  0.783E-04  0.921E-04
  38.608  0.747E-03  0.173E-03  0.213E-03  0.207E-03  0.703E-04  0.835E-04
  38.708  0.738E-03  0.172E-03  0.213E-03  0.213E-03  0.631E-04  0.765E-04
  38.808  0.722E-03  0.168E-03  0.211E-03  0.210E-03  0.594E-04  0.731E-04
  38.908  0.706E-03  0.165E-03  0.208E-03  0.197E-03  0.608E-04  0.751E-04
  39.008  0.701E-03  0.166E-03  0.205E-03  0.179E-03  0.671E-04  0.833E-04
  39.108  0.709E-03  0.167E-03  0.204E-03  0.165E-03  0.769E-04  0.961E-04
  39.208  0.728E-03  0.165E-03  0.204E-03  0.163E-03  0.870E-04  0.109E-03
  39.308  0.744E-03  0.155E-03  0.206E-03  0.172E-03  0.934E-04  0.118E-03
  39.408  0.746E-03  0.139E-03  0.207E-03  0.186E-03  0.936E-04  0.120E-03
  39.508  0.737E-03  0.120E-03  0.212E-03  0.201E-03  0.886E-04  0.115E-03
  39.608  0.721E-03  0.101E-03  0.220E-03  0.215E-03  0.811E-04  0.104E-03
  39.708  0.695E-03  0.831E-04  0.225E-03  0.224E-03  0.735E-04  0.902E-04
  39.808  0.652E-03  0.696E-04  0.219E-03  0.224E-03  0.661E-04  0.732E-04
  39.908  0.591E-03  0.613E-04  0.199E-03  0.216E-03  0.588E-04  0.566E-04
  40.008  0.524E-03  0.586E-04  0.171E-03  0.198E-03  0.517E-04  0.443E-04
  40.108  0.463E-03  0.606E-04  0.144E-03  0.174E-03  0.461E-04  0.383E-04
  40.208  0.425E-03  0.659E-04  0.127E-03  0.150E-03  0.437E-04  0.389E-04
  40.308  0.414E-03  0.719E-04  0.121E-03  0.132E-03  0.454E-04  0.441E-04
  40.408  0.420E-03  0.745E-04  0.122E-03  0.123E-03  0.500E-04  0.500E-04
  40.508  0.418E-03  0.701E-04  0.124E-03  0.117E-03  0.542E-04  0.523E-04
  40.608  0.393E-03  0.587E-04  0.120E-03  0.110E-03  0.554E-04  0.497E-04
  40.708  0.352E-03  0.447E-04  0.107E-03  0.100E-03  0.543E-04  0.455E-04
  40.808  0.311E-03  0.334E-04  0.892E-04  0.907E-04  0.540E-04  0.443E-04
  40.908  0.283E-03  0.265E-04  0.702E-04  0.832E-04  0.562E-04  0.472E-04
  41.008  0.261E-03  0.226E-04  0.530E-04  0.759E-04  0.594E-04  0.505E-04
  41.108  0.232E-03  0.195E-04  0.385E-04  0.656E-04  0.595E-04  0.493E-04
  41.208  0.190E-03  0.157E-04  0.264E-04  0.511E-04  0.544E-04  0.422E-04
  41.308  0.142E-03  0.117E-04  0.169E-04  0.351E-04  0.458E-04  0.323E-04
  41.408  0.101E-03  0.834E-05  0.104E-04  0.217E-04  0.369E-04  0.238E-04
  41.508  0.739E-04  0.583E-05  0.674E-05  0.132E-04  0.294E-04  0.187E-04
  41.608  0.575E-04  0.430E-05  0.497E-05  0.892E-05  0.231E-04  0.162E-04
  41.708  0.469E-04  0.378E-05  0.414E-05  0.688E-05  0.173E-04  0.147E-04
  41.808  0.383E-04  0.396E-05  0.374E-05  0.578E-05  0.120E-04  0.128E-04
  41.908  0.300E-04  0.410E-05  0.342E-05  0.485E-05  0.761E-05  0.100E-04
  42.008  0.212E-04  0.358E-05  0.286E-05  0.371E-05  0.432E-05  0.676E-05
  42.108  0.129E-04  0.246E-05  0.201E-05  0.242E-05  0.216E-05  0.382E-05
  42.208  0.641E-05  0.131E-05  0.113E-05  0.128E-05  0.919E-06  0.177E-05
  42.308  0.254E-05  0.533E-06  0.495E-06  0.537E-06  0.323E-06  0.656E-06
  42.408  0.793E-06  0.166E-06  0.168E-06  0.176E-06  0.911E-07  0.192E-06
  42.508  0.192E-06  0.396E-07  0.436E-07  0.448E-07  0.203E-07  0.441E-07
  42.608  0.361E-07  0.721E-08  0.871E-08  0.880E-08  0.352E-08  0.783E-08
  42.708  0.521E-08  0.100E-08  0.133E-08  0.133E-08  0.473E-09  0.107E-08
  42.808  0.578E-09  0.107E-09  0.156E-09  0.154E-09  0.489E-10  0.113E-09
