# E (eV)   ldos(E)   pdos(E)    pdos(E)    pdos(E)    pdos(E)    pdos(E)   
 -16.392  0.894E-07  0.888E-07  0.166E-09  0.166E-09  0.546E-10  0.161E-09
 -16.292  0.743E-06  0.738E-06  0.155E-08  0.156E-08  0.568E-09  0.167E-08
 -16.192  0.475E-05  0.471E-05  0.113E-07  0.113E-07  0.465E-08  0.137E-07
 -16.092  0.233E-04  0.231E-04  0.641E-07  0.643E-07  0.301E-07  0.889E-07
 -15.992  0.883E-04  0.871E-04  0.286E-06  0.286E-06  0.155E-06  0.458E-06
 -15.892  0.259E-03  0.254E-03  0.101E-05  0.101E-05  0.639E-06  0.190E-05
 -15.792  0.588E-03  0.574E-03  0.283E-05  0.283E-05  0.214E-05  0.637E-05
 -15.692  0.105E-02  0.101E-02  0.643E-05  0.642E-05  0.593E-05  0.176E-04
 -15.592  0.148E-02  0.140E-02  0.120E-04  0.120E-04  0.138E-04  0.410E-04
 -15.492  0.169E-02  0.154E-02  0.188E-04  0.187E-04  0.274E-04  0.816E-04
 -15.392  0.162E-02  0.138E-02  0.256E-04  0.253E-04  0.477E-04  0.142E-03
 -15.292  0.139E-02  0.103E-02  0.310E-04  0.304E-04  0.748E-04  0.223E-03
 -15.192  0.117E-02  0.670E-03  0.347E-04  0.336E-04  0.108E-03  0.321E-03
 -15.092  0.105E-02  0.395E-03  0.369E-04  0.353E-04  0.146E-03  0.434E-03
 -14.992  0.106E-02  0.239E-03  0.382E-04  0.358E-04  0.188E-03  0.560E-03
 -14.892  0.125E-02  0.248E-03  0.392E-04  0.358E-04  0.234E-03  0.697E-03
 -14.792  0.182E-02  0.616E-03  0.401E-04  0.356E-04  0.283E-03  0.845E-03
 -14.692  0.321E-02  0.179E-02  0.418E-04  0.360E-04  0.338E-03  0.101E-02
 -14.592  0.599E-02  0.432E-02  0.453E-04  0.378E-04  0.400E-03  0.119E-02
 -14.492  0.102E-01  0.823E-02  0.520E-04  0.426E-04  0.474E-03  0.140E-02
 -14.392  0.148E-01  0.124E-01  0.630E-04  0.513E-04  0.567E-03  0.167E-02
 -14.292  0.180E-01  0.151E-01  0.781E-04  0.634E-04  0.687E-03  0.202E-02
 -14.192  0.186E-01  0.152E-01  0.956E-04  0.772E-04  0.843E-03  0.246E-02
 -14.092  0.174E-01  0.131E-01  0.114E-03  0.904E-04  0.105E-02  0.306E-02
 -13.992  0.159E-01  0.105E-01  0.133E-03  0.102E-03  0.133E-02  0.388E-02
 -13.892  0.155E-01  0.844E-02  0.157E-03  0.112E-03  0.173E-02  0.508E-02
 -13.792  0.170E-01  0.755E-02  0.188E-03  0.123E-03  0.231E-02  0.681E-02
 -13.692  0.203E-01  0.781E-02  0.225E-03  0.134E-03  0.307E-02  0.907E-02
 -13.592  0.246E-01  0.890E-02  0.256E-03  0.141E-03  0.387E-02  0.115E-01
 -13.492  0.284E-01  0.102E-01  0.262E-03  0.139E-03  0.450E-02  0.133E-01
 -13.392  0.303E-01  0.107E-01  0.234E-03  0.124E-03  0.483E-02  0.143E-01
 -13.292  0.294E-01  0.100E-01  0.183E-03  0.994E-04  0.481E-02  0.143E-01
 -13.192  0.257E-01  0.800E-02  0.127E-03  0.729E-04  0.441E-02  0.131E-01
 -13.092  0.198E-01  0.536E-02  0.790E-04  0.490E-04  0.359E-02  0.107E-01
 -12.992  0.130E-01  0.299E-02  0.446E-04  0.299E-04  0.250E-02  0.743E-02
 -12.892  0.718E-02  0.141E-02  0.224E-04  0.162E-04  0.145E-02  0.429E-02
 -12.792  0.328E-02  0.571E-03  0.969E-05  0.746E-05  0.679E-03  0.201E-02
 -12.692  0.123E-02  0.204E-03  0.352E-05  0.287E-05  0.257E-03  0.761E-03
 -12.592  0.374E-03  0.641E-04  0.105E-05  0.897E-06  0.777E-04  0.230E-03
 -12.492  0.919E-04  0.172E-04  0.254E-06  0.225E-06  0.187E-04  0.554E-04
 -12.392  0.181E-04  0.382E-05  0.490E-07  0.450E-07  0.359E-05  0.106E-04
 -12.292  0.283E-05  0.676E-06  0.749E-08  0.706E-08  0.543E-06  0.160E-05
 -12.192  0.351E-06  0.939E-07  0.902E-09  0.868E-09  0.646E-07  0.190E-06
 -12.092  0.340E-07  0.101E-07  0.850E-10  0.831E-10  0.602E-08  0.177E-07
 -11.992  0.257E-08  0.838E-09  0.624E-11  0.618E-11  0.438E-09  0.129E-08
 -11.892  0.151E-09  0.533E-10  0.356E-12  0.356E-12  0.247E-10  0.727E-10
 -11.792  0.689E-11  0.260E-11  0.157E-13  0.158E-13  0.108E-11  0.318E-11
 -11.692  0.241E-12  0.969E-13  0.532E-15  0.540E-15  0.364E-13  0.107E-12
 -11.592  0.620E-14  0.276E-14  0.129E-16  0.135E-16  0.869E-15  0.255E-14
 -11.492  0.000E+00  0.000E+00  0.000E+00  0.000E+00  0.000E+00  0.000E+00
 -11.392  0.000E+00  0.000E+00  0.000E+00  0.000E+00  0.000E+00  0.000E+00
 -11.292  0.000E+00  0.000E+00  0.000E+00  0.000E+00  0.000E+00  0.000E+00
 -11.192  0.000E+00  0.000E+00  0.000E+00  0.000E+00  0.000E+00  0.000E+00
 -11.092  0.000E+00  0.000E+00  0.000E+00  0.000E+00  0.000E+00  0.000E+00
 -10.992  0.000E+00  0.000E+00  0.000E+00  0.000E+00  0.000E+00  0.000E+00
 -10.892  0.000E+00  0.000E+00  0.000E+00  0.000E+00  0.000E+00  0.000E+00
 -10.792  0.000E+00  0.000E+00  0.000E+00  0.000E+00  0.000E+00  0.000E+00
 -10.692  0.000E+00  0.000E+00  0.000E+00  0.000E+00  0.000E+00  0.000E+00
 -10.592  0.000E+00  0.000E+00  0.000E+00  0.000E+00  0.000E+00  0.000E+00
 -10.492  0.000E+00  0.000E+00  0.000E+00  0.000E+00  0.000E+00  0.000E+00
 -10.392  0.000E+00  0.000E+00  0.000E+00  0.000E+00  0.000E+00  0.000E+00
 -10.292  0.000E+00  0.000E+00  0.000E+00  0.000E+00  0.000E+00  0.000E+00
 -10.192  0.000E+00  0.000E+00  0.000E+00  0.000E+00  0.000E+00  0.000E+00
 -10.092  0.000E+00  0.000E+00  0.000E+00  0.000E+00  0.000E+00  0.000E+00
  -9.992  0.000E+00  0.000E+00  0.000E+00  0.000E+00  0.000E+00  0.000E+00
  -9.892  0.000E+00  0.000E+00  0.000E+00  0.000E+00  0.000E+00  0.000E+00
  -9.792  0.000E+00  0.000E+00  0.000E+00  0.000E+00  0.000E+00  0.000E+00
  -9.692  0.000E+00  0.000E+00  0.000E+00  0.000E+00  0.000E+00  0.000E+00
  -9.592  0.000E+00  0.000E+00  0.000E+00  0.000E+00  0.000E+00  0.000E+00
  -9.492  0.000E+00  0.000E+00  0.000E+00  0.000E+00  0.000E+00  0.000E+00
  -9.392  0.000E+00  0.000E+00  0.000E+00  0.000E+00  0.000E+00  0.000E+00
  -9.292  0.000E+00  0.000E+00  0.000E+00  0.000E+00  0.000E+00  0.000E+00
  -9.192  0.000E+00  0.000E+00  0.000E+00  0.000E+00  0.000E+00  0.000E+00
  -9.092  0.000E+00  0.000E+00  0.000E+00  0.000E+00  0.000E+00  0.000E+00
  -8.992  0.000E+00  0.000E+00  0.000E+00  0.000E+00  0.000E+00  0.000E+00
  -8.892  0.000E+00  0.000E+00  0.000E+00  0.000E+00  0.000E+00  0.000E+00
  -8.792  0.000E+00  0.000E+00  0.000E+00  0.000E+00  0.000E+00  0.000E+00
  -8.692  0.321E-14  0.196E-15  0.203E-14  0.675E-15  0.112E-15  0.199E-15
  -8.592  0.144E-12  0.974E-14  0.896E-13  0.299E-13  0.592E-14  0.910E-14
  -8.492  0.458E-11  0.317E-12  0.283E-11  0.944E-12  0.196E-12  0.290E-12
  -8.392  0.111E-09  0.792E-11  0.684E-10  0.228E-10  0.495E-11  0.709E-11
  -8.292  0.207E-08  0.152E-09  0.127E-08  0.422E-09  0.965E-10  0.133E-09
  -8.192  0.296E-07  0.226E-08  0.180E-07  0.599E-08  0.145E-08  0.191E-08
  -8.092  0.325E-06  0.262E-07  0.196E-06  0.652E-07  0.169E-07  0.211E-07
  -7.992  0.275E-05  0.240E-06  0.163E-05  0.545E-06  0.152E-06  0.180E-06
  -7.892  0.180E-04  0.177E-05  0.105E-04  0.350E-05  0.107E-05  0.119E-05
  -7.792  0.920E-04  0.107E-04  0.521E-04  0.174E-04  0.584E-05  0.606E-05
  -7.692  0.369E-03  0.539E-04  0.199E-03  0.666E-04  0.252E-04  0.242E-04
  -7.592  0.118E-02  0.230E-03  0.593E-03  0.198E-03  0.868E-04  0.760E-04
  -7.492  0.311E-02  0.830E-03  0.138E-02  0.463E-03  0.242E-03  0.192E-03
  -7.392  0.686E-02  0.249E-02  0.254E-02  0.862E-03  0.563E-03  0.407E-03
  -7.292  0.131E-01  0.614E-02  0.376E-02  0.132E-02  0.114E-02  0.769E-03
  -7.192  0.223E-01  0.123E-01  0.466E-02  0.175E-02  0.211E-02  0.141E-02
  -7.092  0.337E-01  0.202E-01  0.512E-02  0.220E-02  0.368E-02  0.257E-02
  -6.992  0.462E-01  0.276E-01  0.537E-02  0.281E-02  0.596E-02  0.448E-02
  -6.892  0.578E-01  0.327E-01  0.565E-02  0.366E-02  0.871E-02  0.706E-02
  -6.792  0.677E-01  0.361E-01  0.596E-02  0.461E-02  0.112E-01  0.977E-02
  -6.692  0.752E-01  0.391E-01  0.606E-02  0.538E-02  0.128E-01  0.119E-01
  -6.592  0.792E-01  0.416E-01  0.579E-02  0.565E-02  0.131E-01  0.130E-01
  -6.492  0.775E-01  0.414E-01  0.513E-02  0.530E-02  0.126E-01  0.130E-01
  -6.392  0.690E-01  0.362E-01  0.423E-02  0.445E-02  0.118E-01  0.123E-01
  -6.292  0.557E-01  0.267E-01  0.329E-02  0.341E-02  0.109E-01  0.113E-01
  -6.192  0.418E-01  0.164E-01  0.250E-02  0.249E-02  0.101E-01  0.104E-01
  -6.092  0.307E-01  0.845E-02  0.192E-02  0.182E-02  0.922E-02  0.932E-02
  -5.992  0.231E-01  0.406E-02  0.153E-02  0.137E-02  0.803E-02  0.812E-02
  -5.892  0.190E-01  0.239E-02  0.131E-02  0.112E-02  0.697E-02  0.725E-02
  -5.792  0.195E-01  0.244E-02  0.134E-02  0.108E-02  0.686E-02  0.775E-02
  -5.692  0.257E-01  0.387E-02  0.172E-02  0.128E-02  0.822E-02  0.106E-01
  -5.592  0.377E-01  0.673E-02  0.259E-02  0.171E-02  0.108E-01  0.159E-01
  -5.492  0.532E-01  0.106E-01  0.411E-02  0.248E-02  0.137E-01  0.224E-01
  -5.392  0.670E-01  0.138E-01  0.635E-02  0.384E-02  0.157E-01  0.273E-01
  -5.292  0.741E-01  0.148E-01  0.904E-02  0.614E-02  0.160E-01  0.281E-01
  -5.192  0.732E-01  0.132E-01  0.115E-01  0.945E-02  0.148E-01  0.243E-01
  -5.092  0.676E-01  0.107E-01  0.130E-01  0.131E-01  0.128E-01  0.179E-01
  -4.992  0.620E-01  0.892E-02  0.133E-01  0.159E-01  0.114E-01  0.124E-01
  -4.892  0.595E-01  0.849E-02  0.126E-01  0.167E-01  0.119E-01  0.981E-02
  -4.792  0.614E-01  0.848E-02  0.116E-01  0.157E-01  0.149E-01  0.107E-01
  -4.692  0.676E-01  0.790E-02  0.107E-01  0.142E-01  0.202E-01  0.146E-01
  -4.592  0.765E-01  0.655E-02  0.103E-01  0.132E-01  0.262E-01  0.202E-01
  -4.492  0.841E-01  0.496E-02  0.101E-01  0.131E-01  0.308E-01  0.252E-01
  -4.392  0.859E-01  0.366E-02  0.101E-01  0.133E-01  0.320E-01  0.270E-01
  -4.292  0.800E-01  0.281E-02  0.990E-02  0.132E-01  0.294E-01  0.247E-01
  -4.192  0.696E-01  0.227E-02  0.989E-02  0.130E-01  0.246E-01  0.199E-01
  -4.092  0.604E-01  0.189E-02  0.105E-01  0.130E-01  0.200E-01  0.151E-01
  -3.992  0.564E-01  0.157E-02  0.120E-01  0.140E-01  0.169E-01  0.119E-01
  -3.892  0.574E-01  0.127E-02  0.143E-01  0.158E-01  0.155E-01  0.105E-01
  -3.792  0.600E-01  0.103E-02  0.164E-01  0.175E-01  0.151E-01  0.100E-01
  -3.692  0.606E-01  0.946E-03  0.170E-01  0.178E-01  0.150E-01  0.994E-02
  -3.592  0.584E-01  0.115E-02  0.159E-01  0.164E-01  0.150E-01  0.990E-02
  -3.492  0.553E-01  0.180E-02  0.141E-01  0.142E-01  0.152E-01  0.993E-02
  -3.392  0.537E-01  0.294E-02  0.127E-01  0.122E-01  0.156E-01  0.102E-01
  -3.292  0.542E-01  0.439E-02  0.122E-01  0.110E-01  0.161E-01  0.106E-01
  -3.192  0.550E-01  0.572E-02  0.120E-01  0.103E-01  0.160E-01  0.110E-01
  -3.092  0.537E-01  0.647E-02  0.114E-01  0.979E-02  0.150E-01  0.111E-01
  -2.992  0.503E-01  0.655E-02  0.102E-01  0.920E-02  0.134E-01  0.110E-01
  -2.892  0.470E-01  0.629E-02  0.894E-02  0.873E-02  0.121E-01  0.110E-01
  -2.792  0.463E-01  0.623E-02  0.824E-02  0.865E-02  0.116E-01  0.116E-01
  -2.692  0.489E-01  0.682E-02  0.840E-02  0.902E-02  0.119E-01  0.127E-01
  -2.592  0.534E-01  0.831E-02  0.929E-02  0.965E-02  0.123E-01  0.138E-01
  -2.492  0.590E-01  0.107E-01  0.107E-01  0.104E-01  0.123E-01  0.150E-01
  -2.392  0.657E-01  0.136E-01  0.125E-01  0.113E-01  0.119E-01  0.164E-01
  -2.292  0.727E-01  0.162E-01  0.142E-01  0.124E-01  0.117E-01  0.182E-01
  -2.192  0.774E-01  0.174E-01  0.154E-01  0.131E-01  0.118E-01  0.198E-01
  -2.092  0.772E-01  0.168E-01  0.154E-01  0.129E-01  0.118E-01  0.202E-01
  -1.992  0.717E-01  0.152E-01  0.142E-01  0.118E-01  0.115E-01  0.191E-01
  -1.892  0.637E-01  0.137E-01  0.124E-01  0.101E-01  0.107E-01  0.167E-01
  -1.792  0.565E-01  0.137E-01  0.108E-01  0.866E-02  0.956E-02  0.138E-01
  -1.692  0.531E-01  0.164E-01  0.971E-02  0.772E-02  0.829E-02  0.110E-01
  -1.592  0.547E-01  0.223E-01  0.925E-02  0.725E-02  0.710E-02  0.881E-02
  -1.492  0.600E-01  0.308E-01  0.905E-02  0.700E-02  0.601E-02  0.709E-02
  -1.392  0.643E-01  0.385E-01  0.865E-02  0.671E-02  0.491E-02  0.559E-02
  -1.292  0.621E-01  0.404E-01  0.775E-02  0.616E-02  0.371E-02  0.411E-02
  -1.192  0.509E-01  0.342E-01  0.630E-02  0.520E-02  0.249E-02  0.271E-02
  -1.092  0.343E-01  0.229E-01  0.451E-02  0.386E-02  0.145E-02  0.156E-02
  -0.992  0.187E-01  0.120E-01  0.275E-02  0.243E-02  0.721E-03  0.768E-03
  -0.892  0.812E-02  0.486E-02  0.139E-02  0.126E-02  0.302E-03  0.319E-03
  -0.792  0.282E-02  0.152E-02  0.565E-03  0.522E-03  0.105E-03  0.111E-03
  -0.692  0.782E-03  0.366E-03  0.183E-03  0.171E-03  0.303E-04  0.317E-04
  -0.592  0.173E-03  0.678E-04  0.465E-04  0.440E-04  0.708E-05  0.738E-05
  -0.492  0.303E-04  0.963E-05  0.921E-05  0.879E-05  0.132E-05  0.137E-05
  -0.392  0.422E-05  0.105E-05  0.142E-05  0.136E-05  0.196E-06  0.203E-06
  -0.292  0.463E-06  0.873E-07  0.168E-06  0.162E-06  0.227E-07  0.234E-07
  -0.192  0.414E-07  0.573E-08  0.158E-07  0.155E-07  0.218E-08  0.225E-08
  -0.092  0.291E-07  0.311E-08  0.820E-08  0.126E-07  0.252E-08  0.261E-08
   0.008  0.351E-06  0.387E-07  0.937E-07  0.154E-06  0.317E-07  0.330E-07
   0.108  0.358E-05  0.405E-06  0.945E-06  0.157E-05  0.324E-06  0.339E-06
   0.208  0.282E-04  0.326E-05  0.735E-05  0.123E-04  0.255E-05  0.268E-05
   0.308  0.171E-03  0.203E-04  0.440E-04  0.746E-04  0.154E-04  0.163E-04
   0.408  0.800E-03  0.985E-04  0.204E-03  0.349E-03  0.718E-04  0.769E-04
   0.508  0.291E-02  0.374E-03  0.738E-03  0.126E-02  0.259E-03  0.282E-03
   0.608  0.832E-02  0.113E-02  0.209E-02  0.356E-02  0.727E-03  0.810E-03
   0.708  0.188E-01  0.275E-02  0.474E-02  0.790E-02  0.160E-02  0.185E-02
   0.808  0.345E-01  0.557E-02  0.878E-02  0.140E-01  0.281E-02  0.342E-02
   0.908  0.528E-01  0.964E-02  0.137E-01  0.201E-01  0.408E-02  0.531E-02
   1.008  0.699E-01  0.145E-01  0.187E-01  0.243E-01  0.522E-02  0.719E-02
   1.108  0.832E-01  0.191E-01  0.229E-01  0.257E-01  0.658E-02  0.890E-02
   1.208  0.925E-01  0.221E-01  0.254E-01  0.254E-01  0.910E-02  0.106E-01
   1.308  0.100E+00  0.227E-01  0.260E-01  0.246E-01  0.140E-01  0.130E-01
   1.408  0.112E+00  0.218E-01  0.259E-01  0.248E-01  0.220E-01  0.173E-01
   1.508  0.131E+00  0.205E-01  0.266E-01  0.266E-01  0.328E-01  0.246E-01
   1.608  0.159E+00  0.196E-01  0.295E-01  0.301E-01  0.449E-01  0.353E-01
   1.708  0.194E+00  0.185E-01  0.356E-01  0.360E-01  0.562E-01  0.479E-01
   1.808  0.233E+00  0.163E-01  0.455E-01  0.455E-01  0.654E-01  0.600E-01
   1.908  0.272E+00  0.132E-01  0.591E-01  0.592E-01  0.717E-01  0.692E-01
   2.008  0.303E+00  0.100E-01  0.726E-01  0.736E-01  0.735E-01  0.730E-01
   2.108  0.307E+00  0.747E-02  0.794E-01  0.815E-01  0.692E-01  0.699E-01
   2.208  0.278E+00  0.602E-02  0.751E-01  0.776E-01  0.587E-01  0.605E-01
   2.308  0.224E+00  0.573E-02  0.619E-01  0.637E-01  0.448E-01  0.480E-01
   2.408  0.168E+00  0.649E-02  0.467E-01  0.469E-01  0.319E-01  0.364E-01
   2.508  0.129E+00  0.813E-02  0.355E-01  0.337E-01  0.227E-01  0.286E-01
   2.608  0.111E+00  0.104E-01  0.308E-01  0.263E-01  0.177E-01  0.253E-01
   2.708  0.110E+00  0.127E-01  0.319E-01  0.237E-01  0.159E-01  0.259E-01
   2.808  0.120E+00  0.140E-01  0.369E-01  0.237E-01  0.159E-01  0.292E-01
   2.908  0.130E+00  0.133E-01  0.423E-01  0.245E-01  0.165E-01  0.330E-01
   3.008  0.131E+00  0.106E-01  0.445E-01  0.248E-01  0.165E-01  0.343E-01
   3.108  0.120E+00  0.704E-02  0.418E-01  0.240E-01  0.152E-01  0.315E-01
   3.208  0.101E+00  0.405E-02  0.361E-01  0.230E-01  0.128E-01  0.253E-01
   3.308  0.849E-01  0.230E-02  0.309E-01  0.231E-01  0.103E-01  0.183E-01
   3.408  0.764E-01  0.158E-02  0.284E-01  0.254E-01  0.836E-02  0.127E-01
   3.508  0.750E-01  0.142E-02  0.280E-01  0.291E-01  0.712E-02  0.933E-02
   3.608  0.755E-01  0.146E-02  0.283E-01  0.322E-01  0.621E-02  0.738E-02
   3.708  0.726E-01  0.154E-02  0.279E-01  0.319E-01  0.521E-02  0.604E-02
   3.808  0.643E-01  0.159E-02  0.263E-01  0.275E-01  0.400E-02  0.490E-02
   3.908  0.526E-01  0.164E-02  0.237E-01  0.205E-01  0.279E-02  0.392E-02
   4.008  0.413E-01  0.183E-02  0.206E-01  0.138E-01  0.185E-02  0.319E-02
   4.108  0.333E-01  0.265E-02  0.174E-01  0.917E-02  0.127E-02  0.271E-02
   4.208  0.292E-01  0.506E-02  0.143E-01  0.642E-02  0.964E-03  0.237E-02
   4.308  0.295E-01  0.105E-01  0.113E-01  0.479E-02  0.784E-03  0.206E-02
   4.408  0.348E-01  0.202E-01  0.858E-02  0.363E-02  0.645E-03  0.174E-02
   4.508  0.448E-01  0.339E-01  0.622E-02  0.274E-02  0.526E-03  0.143E-02
   4.608  0.575E-01  0.488E-01  0.480E-02  0.222E-02  0.457E-03  0.122E-02
   4.708  0.705E-01  0.602E-01  0.580E-02  0.258E-02  0.511E-03  0.134E-02
   4.808  0.854E-01  0.649E-01  0.125E-01  0.494E-02  0.829E-03  0.221E-02
   4.908  0.111E+00  0.638E-01  0.299E-01  0.109E-01  0.160E-02  0.438E-02
   5.008  0.155E+00  0.613E-01  0.609E-01  0.215E-01  0.290E-02  0.808E-02
   5.108  0.213E+00  0.608E-01  0.101E+00  0.349E-01  0.449E-02  0.126E-01
   5.208  0.267E+00  0.628E-01  0.136E+00  0.469E-01  0.583E-02  0.162E-01
   5.308  0.296E+00  0.656E-01  0.153E+00  0.531E-01  0.645E-02  0.176E-01
   5.408  0.297E+00  0.682E-01  0.152E+00  0.529E-01  0.636E-02  0.168E-01
   5.508  0.282E+00  0.718E-01  0.140E+00  0.492E-01  0.598E-02  0.152E-01
   5.608  0.270E+00  0.786E-01  0.127E+00  0.452E-01  0.574E-02  0.141E-01
   5.708  0.268E+00  0.881E-01  0.117E+00  0.433E-01  0.585E-02  0.139E-01
   5.808  0.275E+00  0.962E-01  0.112E+00  0.456E-01  0.642E-02  0.151E-01
   5.908  0.292E+00  0.986E-01  0.113E+00  0.559E-01  0.761E-02  0.178E-01
   6.008  0.325E+00  0.952E-01  0.120E+00  0.776E-01  0.966E-02  0.227E-01
   6.108  0.375E+00  0.897E-01  0.132E+00  0.110E+00  0.127E-01  0.303E-01
   6.208  0.434E+00  0.855E-01  0.146E+00  0.144E+00  0.169E-01  0.414E-01
   6.308  0.486E+00  0.839E-01  0.157E+00  0.167E+00  0.222E-01  0.563E-01
   6.408  0.525E+00  0.843E-01  0.161E+00  0.175E+00  0.285E-01  0.751E-01
   6.508  0.552E+00  0.864E-01  0.162E+00  0.173E+00  0.353E-01  0.960E-01
   6.608  0.570E+00  0.905E-01  0.160E+00  0.164E+00  0.412E-01  0.114E+00
   6.708  0.569E+00  0.976E-01  0.152E+00  0.152E+00  0.441E-01  0.123E+00
   6.808  0.545E+00  0.107E+00  0.140E+00  0.134E+00  0.431E-01  0.120E+00
   6.908  0.504E+00  0.117E+00  0.125E+00  0.114E+00  0.397E-01  0.109E+00
   7.008  0.464E+00  0.124E+00  0.110E+00  0.945E-01  0.365E-01  0.983E-01
   7.108  0.436E+00  0.128E+00  0.973E-01  0.817E-01  0.355E-01  0.928E-01
   7.208  0.428E+00  0.131E+00  0.886E-01  0.768E-01  0.374E-01  0.941E-01
   7.308  0.440E+00  0.133E+00  0.843E-01  0.788E-01  0.421E-01  0.102E+00
   7.408  0.467E+00  0.132E+00  0.843E-01  0.853E-01  0.489E-01  0.116E+00
   7.508  0.494E+00  0.127E+00  0.864E-01  0.929E-01  0.559E-01  0.132E+00
   7.608  0.505E+00  0.116E+00  0.869E-01  0.979E-01  0.605E-01  0.143E+00
   7.708  0.487E+00  0.103E+00  0.835E-01  0.994E-01  0.611E-01  0.140E+00
   7.808  0.454E+00  0.924E-01  0.787E-01  0.100E+00  0.585E-01  0.124E+00
   7.908  0.436E+00  0.907E-01  0.809E-01  0.105E+00  0.568E-01  0.103E+00
   8.008  0.471E+00  0.105E+00  0.998E-01  0.118E+00  0.606E-01  0.869E-01
   8.108  0.571E+00  0.137E+00  0.139E+00  0.141E+00  0.719E-01  0.823E-01
   8.208  0.709E+00  0.176E+00  0.187E+00  0.169E+00  0.890E-01  0.881E-01
   8.308  0.830E+00  0.209E+00  0.223E+00  0.189E+00  0.108E+00  0.101E+00
   8.408  0.892E+00  0.226E+00  0.228E+00  0.190E+00  0.127E+00  0.121E+00
   8.508  0.894E+00  0.232E+00  0.201E+00  0.171E+00  0.144E+00  0.146E+00
   8.608  0.865E+00  0.234E+00  0.161E+00  0.138E+00  0.159E+00  0.173E+00
   8.708  0.826E+00  0.231E+00  0.127E+00  0.106E+00  0.168E+00  0.193E+00
   8.808  0.783E+00  0.222E+00  0.111E+00  0.824E-01  0.169E+00  0.199E+00
   8.908  0.738E+00  0.206E+00  0.108E+00  0.697E-01  0.163E+00  0.191E+00
   9.008  0.704E+00  0.190E+00  0.110E+00  0.653E-01  0.158E+00  0.181E+00
   9.108  0.696E+00  0.182E+00  0.113E+00  0.664E-01  0.159E+00  0.176E+00
   9.208  0.706E+00  0.180E+00  0.113E+00  0.700E-01  0.165E+00  0.178E+00
   9.308  0.712E+00  0.179E+00  0.110E+00  0.725E-01  0.171E+00  0.180E+00
   9.408  0.703E+00  0.177E+00  0.102E+00  0.725E-01  0.172E+00  0.179E+00
   9.508  0.690E+00  0.175E+00  0.893E-01  0.710E-01  0.175E+00  0.180E+00
   9.608  0.696E+00  0.173E+00  0.730E-01  0.699E-01  0.187E+00  0.193E+00
   9.708  0.721E+00  0.168E+00  0.577E-01  0.697E-01  0.209E+00  0.217E+00
   9.808  0.739E+00  0.157E+00  0.467E-01  0.697E-01  0.229E+00  0.237E+00
   9.908  0.722E+00  0.138E+00  0.416E-01  0.706E-01  0.231E+00  0.240E+00
  10.008  0.678E+00  0.121E+00  0.436E-01  0.762E-01  0.214E+00  0.223E+00
  10.108  0.650E+00  0.117E+00  0.546E-01  0.921E-01  0.189E+00  0.198E+00
  10.208  0.678E+00  0.129E+00  0.759E-01  0.122E+00  0.170E+00  0.181E+00
  10.308  0.758E+00  0.152E+00  0.105E+00  0.160E+00  0.164E+00  0.177E+00
  10.408  0.847E+00  0.172E+00  0.133E+00  0.193E+00  0.166E+00  0.183E+00
  10.508  0.900E+00  0.177E+00  0.154E+00  0.206E+00  0.175E+00  0.189E+00
  10.608  0.904E+00  0.166E+00  0.163E+00  0.196E+00  0.186E+00  0.193E+00
  10.708  0.872E+00  0.147E+00  0.162E+00  0.174E+00  0.197E+00  0.193E+00
  10.808  0.835E+00  0.132E+00  0.157E+00  0.152E+00  0.204E+00  0.190E+00
  10.908  0.813E+00  0.127E+00  0.150E+00  0.138E+00  0.210E+00  0.187E+00
  11.008  0.811E+00  0.133E+00  0.141E+00  0.133E+00  0.218E+00  0.186E+00
  11.108  0.815E+00  0.143E+00  0.131E+00  0.132E+00  0.224E+00  0.185E+00
  11.208  0.803E+00  0.152E+00  0.119E+00  0.130E+00  0.222E+00  0.180E+00
  11.308  0.770E+00  0.157E+00  0.108E+00  0.124E+00  0.211E+00  0.170E+00
  11.408  0.730E+00  0.164E+00  0.985E-01  0.115E+00  0.192E+00  0.161E+00
  11.508  0.711E+00  0.185E+00  0.924E-01  0.106E+00  0.171E+00  0.156E+00
  11.608  0.738E+00  0.224E+00  0.929E-01  0.104E+00  0.157E+00  0.160E+00
  11.708  0.831E+00  0.277E+00  0.103E+00  0.113E+00  0.158E+00  0.179E+00
  11.808  0.992E+00  0.329E+00  0.126E+00  0.139E+00  0.181E+00  0.217E+00
  11.908  0.119E+01  0.357E+00  0.158E+00  0.179E+00  0.229E+00  0.270E+00
  12.008  0.137E+01  0.351E+00  0.188E+00  0.221E+00  0.288E+00  0.321E+00
  12.108  0.143E+01  0.313E+00  0.199E+00  0.246E+00  0.329E+00  0.343E+00
  12.208  0.133E+01  0.258E+00  0.183E+00  0.239E+00  0.330E+00  0.322E+00
  12.308  0.111E+01  0.204E+00  0.147E+00  0.202E+00  0.291E+00  0.271E+00
  12.408  0.882E+00  0.165E+00  0.112E+00  0.156E+00  0.234E+00  0.216E+00
  12.508  0.719E+00  0.149E+00  0.916E-01  0.120E+00  0.184E+00  0.174E+00
  12.608  0.642E+00  0.156E+00  0.878E-01  0.103E+00  0.148E+00  0.147E+00
  12.708  0.611E+00  0.172E+00  0.911E-01  0.988E-01  0.123E+00  0.126E+00
  12.808  0.577E+00  0.178E+00  0.904E-01  0.962E-01  0.105E+00  0.107E+00
  12.908  0.514E+00  0.162E+00  0.819E-01  0.889E-01  0.905E-01  0.907E-01
  13.008  0.436E+00  0.128E+00  0.703E-01  0.785E-01  0.819E-01  0.777E-01
  13.108  0.374E+00  0.910E-01  0.623E-01  0.696E-01  0.809E-01  0.703E-01
  13.208  0.349E+00  0.649E-01  0.604E-01  0.642E-01  0.890E-01  0.700E-01
  13.308  0.358E+00  0.542E-01  0.630E-01  0.610E-01  0.104E+00  0.762E-01
  13.408  0.385E+00  0.554E-01  0.675E-01  0.584E-01  0.118E+00  0.859E-01
  13.508  0.409E+00  0.613E-01  0.728E-01  0.568E-01  0.124E+00  0.941E-01
  13.608  0.419E+00  0.660E-01  0.787E-01  0.572E-01  0.119E+00  0.980E-01
  13.708  0.418E+00  0.657E-01  0.854E-01  0.609E-01  0.108E+00  0.979E-01
  13.808  0.416E+00  0.593E-01  0.934E-01  0.691E-01  0.983E-01  0.962E-01
  13.908  0.425E+00  0.484E-01  0.103E+00  0.829E-01  0.948E-01  0.952E-01
  14.008  0.452E+00  0.365E-01  0.117E+00  0.103E+00  0.999E-01  0.968E-01
  14.108  0.498E+00  0.270E-01  0.133E+00  0.126E+00  0.111E+00  0.101E+00
  14.208  0.545E+00  0.214E-01  0.150E+00  0.146E+00  0.120E+00  0.106E+00
  14.308  0.572E+00  0.202E-01  0.161E+00  0.158E+00  0.124E+00  0.108E+00
  14.408  0.569E+00  0.235E-01  0.160E+00  0.161E+00  0.120E+00  0.104E+00
  14.508  0.543E+00  0.314E-01  0.148E+00  0.155E+00  0.112E+00  0.969E-01
  14.608  0.510E+00  0.428E-01  0.129E+00  0.147E+00  0.103E+00  0.890E-01
  14.708  0.485E+00  0.562E-01  0.111E+00  0.139E+00  0.958E-01  0.823E-01
  14.808  0.470E+00  0.706E-01  0.989E-01  0.134E+00  0.904E-01  0.761E-01
  14.908  0.468E+00  0.855E-01  0.925E-01  0.133E+00  0.874E-01  0.696E-01
  15.008  0.480E+00  0.996E-01  0.914E-01  0.136E+00  0.879E-01  0.642E-01
  15.108  0.505E+00  0.110E+00  0.956E-01  0.145E+00  0.931E-01  0.620E-01
  15.208  0.538E+00  0.113E+00  0.105E+00  0.154E+00  0.103E+00  0.637E-01
  15.308  0.570E+00  0.108E+00  0.119E+00  0.161E+00  0.114E+00  0.686E-01
  15.408  0.604E+00  0.961E-01  0.139E+00  0.167E+00  0.127E+00  0.758E-01
  15.508  0.655E+00  0.828E-01  0.168E+00  0.180E+00  0.138E+00  0.857E-01
  15.608  0.727E+00  0.719E-01  0.205E+00  0.205E+00  0.148E+00  0.975E-01
  15.708  0.805E+00  0.668E-01  0.242E+00  0.236E+00  0.153E+00  0.108E+00
  15.808  0.858E+00  0.681E-01  0.265E+00  0.262E+00  0.151E+00  0.113E+00
  15.908  0.869E+00  0.727E-01  0.270E+00  0.271E+00  0.144E+00  0.112E+00
  16.008  0.850E+00  0.760E-01  0.263E+00  0.268E+00  0.136E+00  0.108E+00
  16.108  0.831E+00  0.747E-01  0.259E+00  0.264E+00  0.130E+00  0.104E+00
  16.208  0.827E+00  0.691E-01  0.262E+00  0.267E+00  0.128E+00  0.101E+00
  16.308  0.816E+00  0.612E-01  0.262E+00  0.267E+00  0.128E+00  0.969E-01
  16.408  0.761E+00  0.533E-01  0.240E+00  0.246E+00  0.129E+00  0.924E-01
  16.508  0.654E+00  0.469E-01  0.192E+00  0.200E+00  0.127E+00  0.875E-01
  16.608  0.525E+00  0.422E-01  0.136E+00  0.145E+00  0.119E+00  0.821E-01
  16.708  0.413E+00  0.390E-01  0.914E-01  0.101E+00  0.105E+00  0.760E-01
  16.808  0.335E+00  0.373E-01  0.643E-01  0.746E-01  0.887E-01  0.698E-01
  16.908  0.292E+00  0.374E-01  0.505E-01  0.617E-01  0.772E-01  0.648E-01
  17.008  0.275E+00  0.387E-01  0.440E-01  0.565E-01  0.739E-01  0.616E-01
  17.108  0.273E+00  0.401E-01  0.408E-01  0.548E-01  0.783E-01  0.594E-01
  17.208  0.284E+00  0.420E-01  0.392E-01  0.552E-01  0.894E-01  0.583E-01
  17.308  0.313E+00  0.468E-01  0.388E-01  0.575E-01  0.110E+00  0.601E-01
  17.408  0.369E+00  0.577E-01  0.400E-01  0.630E-01  0.141E+00  0.672E-01
  17.508  0.446E+00  0.747E-01  0.428E-01  0.717E-01  0.178E+00  0.786E-01
  17.608  0.511E+00  0.915E-01  0.459E-01  0.799E-01  0.205E+00  0.886E-01
  17.708  0.522E+00  0.995E-01  0.471E-01  0.818E-01  0.203E+00  0.903E-01
  17.808  0.467E+00  0.946E-01  0.453E-01  0.741E-01  0.171E+00  0.816E-01
  17.908  0.374E+00  0.811E-01  0.420E-01  0.602E-01  0.123E+00  0.675E-01
  18.008  0.287E+00  0.669E-01  0.393E-01  0.469E-01  0.788E-01  0.547E-01
  18.108  0.226E+00  0.567E-01  0.369E-01  0.373E-01  0.494E-01  0.453E-01
  18.208  0.185E+00  0.509E-01  0.330E-01  0.303E-01  0.335E-01  0.374E-01
  18.308  0.153E+00  0.478E-01  0.271E-01  0.240E-01  0.249E-01  0.294E-01
  18.408  0.127E+00  0.467E-01  0.207E-01  0.183E-01  0.192E-01  0.221E-01
  18.508  0.110E+00  0.474E-01  0.158E-01  0.142E-01  0.153E-01  0.175E-01
  18.608  0.105E+00  0.500E-01  0.132E-01  0.122E-01  0.133E-01  0.165E-01
  18.708  0.112E+00  0.540E-01  0.127E-01  0.122E-01  0.134E-01  0.193E-01
  18.808  0.126E+00  0.575E-01  0.142E-01  0.138E-01  0.152E-01  0.249E-01
  18.908  0.141E+00  0.582E-01  0.175E-01  0.162E-01  0.181E-01  0.310E-01
  19.008  0.152E+00  0.545E-01  0.219E-01  0.190E-01  0.215E-01  0.353E-01
  19.108  0.159E+00  0.475E-01  0.269E-01  0.217E-01  0.257E-01  0.372E-01
  19.208  0.163E+00  0.395E-01  0.313E-01  0.243E-01  0.301E-01  0.376E-01
  19.308  0.163E+00  0.326E-01  0.339E-01  0.260E-01  0.333E-01  0.370E-01
  19.408  0.156E+00  0.274E-01  0.338E-01  0.260E-01  0.333E-01  0.355E-01
  19.508  0.142E+00  0.237E-01  0.312E-01  0.242E-01  0.299E-01  0.330E-01
  19.608  0.124E+00  0.212E-01  0.270E-01  0.211E-01  0.248E-01  0.303E-01
  19.708  0.109E+00  0.200E-01  0.225E-01  0.179E-01  0.202E-01  0.279E-01
  19.808  0.972E-01  0.200E-01  0.189E-01  0.153E-01  0.172E-01  0.258E-01
  19.908  0.898E-01  0.206E-01  0.165E-01  0.136E-01  0.156E-01  0.236E-01
  20.008  0.851E-01  0.210E-01  0.155E-01  0.129E-01  0.147E-01  0.210E-01
  20.108  0.828E-01  0.211E-01  0.156E-01  0.131E-01  0.142E-01  0.187E-01
  20.208  0.836E-01  0.213E-01  0.163E-01  0.141E-01  0.144E-01  0.175E-01
  20.308  0.880E-01  0.223E-01  0.173E-01  0.156E-01  0.154E-01  0.174E-01
  20.408  0.954E-01  0.241E-01  0.187E-01  0.177E-01  0.168E-01  0.182E-01
  20.508  0.105E+00  0.263E-01  0.206E-01  0.205E-01  0.183E-01  0.191E-01
  20.608  0.114E+00  0.280E-01  0.229E-01  0.238E-01  0.193E-01  0.196E-01
  20.708  0.118E+00  0.283E-01  0.246E-01  0.265E-01  0.198E-01  0.191E-01
  20.808  0.117E+00  0.271E-01  0.248E-01  0.274E-01  0.196E-01  0.177E-01
  20.908  0.109E+00  0.252E-01  0.233E-01  0.262E-01  0.187E-01  0.160E-01
  21.008  0.100E+00  0.241E-01  0.209E-01  0.236E-01  0.171E-01  0.145E-01
  21.108  0.926E-01  0.241E-01  0.188E-01  0.209E-01  0.153E-01  0.136E-01
  21.208  0.880E-01  0.244E-01  0.176E-01  0.191E-01  0.139E-01  0.129E-01
  21.308  0.855E-01  0.241E-01  0.177E-01  0.186E-01  0.129E-01  0.122E-01
  21.408  0.838E-01  0.227E-01  0.186E-01  0.188E-01  0.123E-01  0.114E-01
  21.508  0.825E-01  0.212E-01  0.200E-01  0.190E-01  0.117E-01  0.106E-01
  21.608  0.818E-01  0.205E-01  0.213E-01  0.188E-01  0.111E-01  0.101E-01
  21.708  0.815E-01  0.210E-01  0.222E-01  0.180E-01  0.103E-01  0.993E-02
  21.808  0.805E-01  0.219E-01  0.220E-01  0.167E-01  0.965E-02  0.103E-01
  21.908  0.783E-01  0.225E-01  0.204E-01  0.151E-01  0.935E-02  0.109E-01
  22.008  0.756E-01  0.220E-01  0.182E-01  0.139E-01  0.965E-02  0.118E-01
  22.108  0.738E-01  0.206E-01  0.165E-01  0.136E-01  0.105E-01  0.126E-01
  22.208  0.736E-01  0.185E-01  0.162E-01  0.142E-01  0.115E-01  0.132E-01
  22.308  0.756E-01  0.160E-01  0.173E-01  0.159E-01  0.127E-01  0.137E-01
  22.408  0.800E-01  0.139E-01  0.193E-01  0.182E-01  0.141E-01  0.145E-01
  22.508  0.864E-01  0.131E-01  0.212E-01  0.208E-01  0.155E-01  0.157E-01
  22.608  0.931E-01  0.137E-01  0.228E-01  0.233E-01  0.165E-01  0.169E-01
  22.708  0.984E-01  0.154E-01  0.236E-01  0.253E-01  0.167E-01  0.175E-01
  22.808  0.100E+00  0.173E-01  0.233E-01  0.263E-01  0.162E-01  0.170E-01
  22.908  0.958E-01  0.184E-01  0.214E-01  0.257E-01  0.150E-01  0.153E-01
  23.008  0.859E-01  0.180E-01  0.183E-01  0.231E-01  0.136E-01  0.129E-01
  23.108  0.738E-01  0.160E-01  0.151E-01  0.197E-01  0.122E-01  0.107E-01
  23.208  0.645E-01  0.134E-01  0.131E-01  0.171E-01  0.114E-01  0.949E-02
  23.308  0.615E-01  0.113E-01  0.131E-01  0.164E-01  0.114E-01  0.938E-02
  23.408  0.642E-01  0.101E-01  0.144E-01  0.176E-01  0.119E-01  0.102E-01
  23.508  0.693E-01  0.950E-02  0.161E-01  0.195E-01  0.129E-01  0.114E-01
  23.608  0.733E-01  0.910E-02  0.170E-01  0.207E-01  0.139E-01  0.126E-01
  23.708  0.740E-01  0.854E-02  0.168E-01  0.206E-01  0.147E-01  0.134E-01
  23.808  0.712E-01  0.786E-02  0.157E-01  0.191E-01  0.149E-01  0.136E-01
  23.908  0.659E-01  0.735E-02  0.140E-01  0.166E-01  0.146E-01  0.133E-01
  24.008  0.606E-01  0.732E-02  0.120E-01  0.138E-01  0.144E-01  0.131E-01
  24.108  0.575E-01  0.775E-02  0.102E-01  0.114E-01  0.148E-01  0.133E-01
  24.208  0.576E-01  0.836E-02  0.887E-02  0.997E-02  0.161E-01  0.142E-01
  24.308  0.605E-01  0.880E-02  0.831E-02  0.963E-02  0.178E-01  0.160E-01
  24.408  0.651E-01  0.891E-02  0.838E-02  0.103E-01  0.194E-01  0.181E-01
  24.508  0.698E-01  0.881E-02  0.874E-02  0.115E-01  0.206E-01  0.202E-01
  24.608  0.731E-01  0.879E-02  0.908E-02  0.125E-01  0.213E-01  0.214E-01
  24.708  0.742E-01  0.921E-02  0.928E-02  0.128E-01  0.214E-01  0.215E-01
  24.808  0.737E-01  0.102E-01  0.941E-02  0.123E-01  0.212E-01  0.206E-01
  24.908  0.740E-01  0.116E-01  0.968E-02  0.115E-01  0.213E-01  0.199E-01
  25.008  0.770E-01  0.135E-01  0.102E-01  0.111E-01  0.220E-01  0.202E-01
  25.108  0.822E-01  0.155E-01  0.110E-01  0.114E-01  0.229E-01  0.214E-01
  25.208  0.860E-01  0.172E-01  0.116E-01  0.122E-01  0.230E-01  0.220E-01
  25.308  0.852E-01  0.177E-01  0.118E-01  0.131E-01  0.215E-01  0.211E-01
  25.408  0.801E-01  0.168E-01  0.114E-01  0.141E-01  0.190E-01  0.187E-01
  25.508  0.739E-01  0.146E-01  0.108E-01  0.152E-01  0.170E-01  0.163E-01
  25.608  0.710E-01  0.122E-01  0.103E-01  0.167E-01  0.166E-01  0.152E-01
  25.708  0.733E-01  0.109E-01  0.101E-01  0.182E-01  0.183E-01  0.158E-01
  25.808  0.790E-01  0.109E-01  0.103E-01  0.192E-01  0.211E-01  0.175E-01
  25.908  0.832E-01  0.117E-01  0.104E-01  0.193E-01  0.230E-01  0.187E-01
  26.008  0.815E-01  0.127E-01  0.101E-01  0.181E-01  0.225E-01  0.182E-01
  26.108  0.737E-01  0.130E-01  0.933E-02  0.159E-01  0.195E-01  0.159E-01
  26.208  0.630E-01  0.127E-01  0.845E-02  0.135E-01  0.156E-01  0.127E-01
  26.308  0.536E-01  0.124E-01  0.777E-02  0.114E-01  0.121E-01  0.991E-02
  26.408  0.477E-01  0.125E-01  0.735E-02  0.992E-02  0.984E-02  0.807E-02
  26.508  0.454E-01  0.136E-01  0.706E-02  0.885E-02  0.864E-02  0.728E-02
  26.608  0.453E-01  0.149E-01  0.678E-02  0.799E-02  0.821E-02  0.737E-02
  26.708  0.460E-01  0.157E-01  0.656E-02  0.735E-02  0.828E-02  0.803E-02
  26.808  0.467E-01  0.154E-01  0.655E-02  0.709E-02  0.869E-02  0.892E-02
  26.908  0.479E-01  0.144E-01  0.693E-02  0.731E-02  0.945E-02  0.986E-02
  27.008  0.506E-01  0.134E-01  0.772E-02  0.791E-02  0.106E-01  0.109E-01
  27.108  0.544E-01  0.130E-01  0.857E-02  0.861E-02  0.122E-01  0.121E-01
  27.208  0.575E-01  0.130E-01  0.899E-02  0.901E-02  0.136E-01  0.130E-01
  27.308  0.575E-01  0.129E-01  0.865E-02  0.889E-02  0.141E-01  0.130E-01
  27.408  0.535E-01  0.126E-01  0.767E-02  0.826E-02  0.133E-01  0.118E-01
  27.508  0.475E-01  0.119E-01  0.651E-02  0.737E-02  0.116E-01  0.101E-01
  27.608  0.424E-01  0.112E-01  0.562E-02  0.655E-02  0.100E-01  0.903E-02
  27.708  0.403E-01  0.105E-01  0.518E-02  0.599E-02  0.926E-02  0.939E-02
  27.808  0.411E-01  0.100E-01  0.509E-02  0.571E-02  0.941E-02  0.109E-01
  27.908  0.426E-01  0.972E-02  0.512E-02  0.559E-02  0.985E-02  0.123E-01
  28.008  0.425E-01  0.931E-02  0.513E-02  0.552E-02  0.991E-02  0.126E-01
  28.108  0.406E-01  0.865E-02  0.515E-02  0.554E-02  0.950E-02  0.118E-01
  28.208  0.384E-01  0.782E-02  0.532E-02  0.578E-02  0.908E-02  0.104E-01
  28.308  0.373E-01  0.703E-02  0.565E-02  0.630E-02  0.902E-02  0.933E-02
  28.408  0.370E-01  0.636E-02  0.597E-02  0.686E-02  0.920E-02  0.860E-02
  28.508  0.360E-01  0.581E-02  0.600E-02  0.708E-02  0.911E-02  0.795E-02
  28.608  0.334E-01  0.536E-02  0.562E-02  0.677E-02  0.847E-02  0.713E-02
  28.708  0.299E-01  0.505E-02  0.501E-02  0.605E-02  0.752E-02  0.625E-02
  28.808  0.269E-01  0.493E-02  0.444E-02  0.523E-02  0.673E-02  0.560E-02
  28.908  0.253E-01  0.495E-02  0.412E-02  0.457E-02  0.632E-02  0.537E-02
  29.008  0.250E-01  0.497E-02  0.410E-02  0.420E-02  0.619E-02  0.550E-02
  29.108  0.254E-01  0.487E-02  0.435E-02  0.418E-02  0.610E-02  0.588E-02
  29.208  0.264E-01  0.476E-02  0.483E-02  0.457E-02  0.591E-02  0.630E-02
  29.308  0.282E-01  0.508E-02  0.549E-02  0.542E-02  0.565E-02  0.658E-02
  29.408  0.315E-01  0.629E-02  0.628E-02  0.676E-02  0.550E-02  0.666E-02
  29.508  0.364E-01  0.844E-02  0.716E-02  0.841E-02  0.568E-02  0.673E-02
  29.608  0.418E-01  0.107E-01  0.800E-02  0.987E-02  0.627E-02  0.699E-02
  29.708  0.455E-01  0.120E-01  0.862E-02  0.106E-01  0.702E-02  0.735E-02
  29.808  0.458E-01  0.116E-01  0.887E-02  0.103E-01  0.754E-02  0.754E-02
  29.908  0.431E-01  0.101E-01  0.874E-02  0.930E-02  0.757E-02  0.735E-02
  30.008  0.391E-01  0.870E-02  0.826E-02  0.815E-02  0.714E-02  0.681E-02
  30.108  0.353E-01  0.808E-02  0.752E-02  0.709E-02  0.650E-02  0.613E-02
  30.208  0.326E-01  0.839E-02  0.658E-02  0.617E-02  0.594E-02  0.556E-02
  30.308  0.312E-01  0.927E-02  0.562E-02  0.535E-02  0.564E-02  0.529E-02
  30.408  0.311E-01  0.103E-01  0.492E-02  0.473E-02  0.568E-02  0.546E-02
  30.508  0.322E-01  0.111E-01  0.465E-02  0.446E-02  0.598E-02  0.603E-02
  30.608  0.343E-01  0.117E-01  0.480E-02  0.458E-02  0.642E-02  0.679E-02
  30.708  0.369E-01  0.122E-01  0.524E-02  0.507E-02  0.686E-02  0.752E-02
  30.808  0.399E-01  0.130E-01  0.577E-02  0.579E-02  0.725E-02  0.804E-02
  30.908  0.425E-01  0.139E-01  0.621E-02  0.649E-02  0.757E-02  0.834E-02
  31.008  0.438E-01  0.143E-01  0.639E-02  0.694E-02  0.779E-02  0.840E-02
  31.108  0.431E-01  0.138E-01  0.631E-02  0.700E-02  0.785E-02  0.819E-02
  31.208  0.408E-01  0.126E-01  0.607E-02  0.674E-02  0.766E-02  0.768E-02
  31.308  0.379E-01  0.113E-01  0.593E-02  0.634E-02  0.727E-02  0.700E-02
  31.408  0.354E-01  0.101E-01  0.603E-02  0.599E-02  0.692E-02  0.637E-02
  31.508  0.337E-01  0.886E-02  0.627E-02  0.582E-02  0.680E-02  0.593E-02
  31.608  0.321E-01  0.748E-02  0.638E-02  0.580E-02  0.684E-02  0.563E-02
  31.708  0.303E-01  0.620E-02  0.616E-02  0.583E-02  0.675E-02  0.534E-02
  31.808  0.280E-01  0.528E-02  0.560E-02  0.576E-02  0.634E-02  0.501E-02
  31.908  0.256E-01  0.472E-02  0.495E-02  0.554E-02  0.571E-02  0.466E-02
  32.008  0.235E-01  0.441E-02  0.450E-02  0.518E-02  0.512E-02  0.431E-02
  32.108  0.222E-01  0.421E-02  0.442E-02  0.479E-02  0.476E-02  0.401E-02
  32.208  0.217E-01  0.406E-02  0.466E-02  0.447E-02  0.467E-02  0.381E-02
  32.308  0.216E-01  0.393E-02  0.497E-02  0.423E-02  0.472E-02  0.371E-02
  32.408  0.212E-01  0.382E-02  0.506E-02  0.402E-02  0.467E-02  0.366E-02
  32.508  0.206E-01  0.381E-02  0.484E-02  0.385E-02  0.443E-02  0.362E-02
  32.608  0.201E-01  0.406E-02  0.451E-02  0.380E-02  0.410E-02  0.366E-02
  32.708  0.206E-01  0.462E-02  0.435E-02  0.392E-02  0.385E-02  0.386E-02
  32.808  0.220E-01  0.538E-02  0.449E-02  0.418E-02  0.375E-02  0.420E-02
  32.908  0.237E-01  0.607E-02  0.481E-02  0.449E-02  0.375E-02  0.455E-02
  33.008  0.249E-01  0.646E-02  0.512E-02  0.478E-02  0.378E-02  0.473E-02
  33.108  0.254E-01  0.649E-02  0.532E-02  0.506E-02  0.381E-02  0.475E-02
  33.208  0.260E-01  0.628E-02  0.558E-02  0.550E-02  0.390E-02  0.474E-02
  33.308  0.273E-01  0.595E-02  0.612E-02  0.625E-02  0.413E-02  0.485E-02
  33.408  0.295E-01  0.564E-02  0.702E-02  0.726E-02  0.455E-02  0.508E-02
  33.508  0.320E-01  0.542E-02  0.800E-02  0.824E-02  0.502E-02  0.533E-02
  33.608  0.335E-01  0.533E-02  0.862E-02  0.876E-02  0.533E-02  0.551E-02
  33.708  0.334E-01  0.532E-02  0.857E-02  0.859E-02  0.536E-02  0.555E-02
  33.808  0.317E-01  0.530E-02  0.790E-02  0.784E-02  0.521E-02  0.543E-02
  33.908  0.294E-01  0.530E-02  0.697E-02  0.687E-02  0.506E-02  0.521E-02
  34.008  0.275E-01  0.547E-02  0.607E-02  0.594E-02  0.500E-02  0.501E-02
  34.108  0.263E-01  0.592E-02  0.537E-02  0.518E-02  0.489E-02  0.492E-02
  34.208  0.255E-01  0.645E-02  0.494E-02  0.460E-02  0.462E-02  0.494E-02
  34.308  0.249E-01  0.668E-02  0.476E-02  0.421E-02  0.423E-02  0.499E-02
  34.408  0.241E-01  0.640E-02  0.470E-02  0.400E-02  0.399E-02  0.503E-02
  34.508  0.234E-01  0.571E-02  0.464E-02  0.392E-02  0.405E-02  0.507E-02
  34.608  0.230E-01  0.489E-02  0.457E-02  0.403E-02  0.443E-02  0.512E-02
  34.708  0.234E-01  0.420E-02  0.462E-02  0.440E-02  0.498E-02  0.525E-02
  34.808  0.247E-01  0.376E-02  0.486E-02  0.499E-02  0.559E-02  0.552E-02
  34.908  0.265E-01  0.360E-02  0.527E-02  0.564E-02  0.616E-02  0.587E-02
  35.008  0.282E-01  0.362E-02  0.579E-02  0.614E-02  0.654E-02  0.615E-02
  35.108  0.293E-01  0.367E-02  0.630E-02  0.640E-02  0.667E-02  0.621E-02
  35.208  0.292E-01  0.358E-02  0.660E-02  0.650E-02  0.652E-02  0.602E-02
  35.308  0.281E-01  0.322E-02  0.652E-02  0.657E-02  0.616E-02  0.566E-02
  35.408  0.264E-01  0.263E-02  0.606E-02  0.672E-02  0.568E-02  0.526E-02
  35.508  0.243E-01  0.199E-02  0.536E-02  0.688E-02  0.517E-02  0.487E-02
  35.608  0.220E-01  0.148E-02  0.461E-02  0.676E-02  0.466E-02  0.451E-02
  35.708  0.196E-01  0.119E-02  0.389E-02  0.614E-02  0.420E-02  0.420E-02
  35.808  0.173E-01  0.110E-02  0.326E-02  0.506E-02  0.389E-02  0.397E-02
  35.908  0.155E-01  0.116E-02  0.282E-02  0.392E-02  0.380E-02  0.381E-02
  36.008  0.147E-01  0.134E-02  0.266E-02  0.313E-02  0.389E-02  0.370E-02
  36.108  0.150E-01  0.160E-02  0.285E-02  0.288E-02  0.403E-02  0.361E-02
  36.208  0.159E-01  0.190E-02  0.330E-02  0.306E-02  0.412E-02  0.357E-02
  36.308  0.172E-01  0.214E-02  0.383E-02  0.344E-02  0.415E-02  0.362E-02
  36.408  0.181E-01  0.228E-02  0.419E-02  0.375E-02  0.416E-02  0.376E-02
  36.508  0.186E-01  0.230E-02  0.419E-02  0.387E-02  0.425E-02  0.395E-02
  36.608  0.187E-01  0.223E-02  0.389E-02  0.383E-02  0.454E-02  0.424E-02
  36.708  0.192E-01  0.214E-02  0.350E-02  0.372E-02  0.510E-02  0.470E-02
  36.808  0.198E-01  0.204E-02  0.320E-02  0.357E-02  0.576E-02  0.525E-02
  36.908  0.201E-01  0.196E-02  0.301E-02  0.340E-02  0.608E-02  0.561E-02
  37.008  0.194E-01  0.189E-02  0.292E-02  0.329E-02  0.579E-02  0.546E-02
  37.108  0.181E-01  0.188E-02  0.300E-02  0.342E-02  0.498E-02  0.482E-02
  37.208  0.174E-01  0.194E-02  0.340E-02  0.391E-02  0.410E-02  0.405E-02
  37.308  0.181E-01  0.206E-02  0.418E-02  0.476E-02  0.355E-02  0.356E-02
  37.408  0.200E-01  0.221E-02  0.512E-02  0.567E-02  0.347E-02  0.352E-02
  37.508  0.219E-01  0.233E-02  0.579E-02  0.621E-02  0.373E-02  0.382E-02
  37.608  0.223E-01  0.238E-02  0.579E-02  0.599E-02  0.400E-02  0.412E-02
  37.708  0.207E-01  0.233E-02  0.511E-02  0.506E-02  0.401E-02  0.415E-02
  37.808  0.176E-01  0.219E-02  0.410E-02  0.387E-02  0.363E-02  0.382E-02
  37.908  0.142E-01  0.198E-02  0.315E-02  0.284E-02  0.301E-02  0.323E-02
  38.008  0.112E-01  0.173E-02  0.240E-02  0.212E-02  0.237E-02  0.261E-02
  38.108  0.898E-02  0.146E-02  0.188E-02  0.167E-02  0.187E-02  0.209E-02
  38.208  0.747E-02  0.123E-02  0.158E-02  0.143E-02  0.152E-02  0.171E-02
  38.308  0.664E-02  0.106E-02  0.149E-02  0.136E-02  0.128E-02  0.144E-02
  38.408  0.632E-02  0.973E-03  0.153E-02  0.143E-02  0.112E-02  0.127E-02
  38.508  0.626E-02  0.931E-03  0.161E-02  0.155E-02  0.102E-02  0.116E-02
  38.608  0.622E-02  0.902E-03  0.165E-02  0.163E-02  0.959E-03  0.108E-02
  38.708  0.612E-02  0.872E-03  0.164E-02  0.166E-02  0.932E-03  0.102E-02
  38.808  0.597E-02  0.845E-03  0.158E-02  0.164E-02  0.932E-03  0.974E-03
  38.908  0.584E-02  0.832E-03  0.150E-02  0.158E-02  0.959E-03  0.966E-03
  39.008  0.576E-02  0.834E-03  0.140E-02  0.151E-02  0.101E-02  0.100E-02
  39.108  0.578E-02  0.834E-03  0.132E-02  0.147E-02  0.109E-02  0.107E-02
  39.208  0.590E-02  0.812E-03  0.129E-02  0.147E-02  0.118E-02  0.115E-02
  39.308  0.602E-02  0.766E-03  0.128E-02  0.150E-02  0.126E-02  0.121E-02
  39.408  0.604E-02  0.713E-03  0.128E-02  0.151E-02  0.129E-02  0.125E-02
  39.508  0.594E-02  0.670E-03  0.126E-02  0.148E-02  0.127E-02  0.125E-02
  39.608  0.574E-02  0.640E-03  0.123E-02  0.143E-02  0.121E-02  0.123E-02
  39.708  0.542E-02  0.601E-03  0.117E-02  0.139E-02  0.111E-02  0.115E-02
  39.808  0.501E-02  0.544E-03  0.110E-02  0.136E-02  0.993E-03  0.101E-02
  39.908  0.454E-02  0.481E-03  0.102E-02  0.132E-02  0.874E-03  0.841E-03
  40.008  0.409E-02  0.437E-03  0.942E-03  0.125E-02  0.764E-03  0.691E-03
  40.108  0.374E-02  0.428E-03  0.891E-03  0.116E-02  0.677E-03  0.586E-03
  40.208  0.355E-02  0.452E-03  0.880E-03  0.106E-02  0.622E-03  0.536E-03
  40.308  0.352E-02  0.485E-03  0.907E-03  0.994E-03  0.598E-03  0.531E-03
  40.408  0.354E-02  0.497E-03  0.937E-03  0.959E-03  0.591E-03  0.553E-03
  40.508  0.347E-02  0.467E-03  0.930E-03  0.927E-03  0.576E-03  0.568E-03
  40.608  0.324E-02  0.406E-03  0.867E-03  0.873E-03  0.538E-03  0.553E-03
  40.708  0.291E-02  0.345E-03  0.763E-03  0.799E-03  0.489E-03  0.515E-03
  40.808  0.262E-02  0.311E-03  0.658E-03  0.725E-03  0.453E-03  0.477E-03
  40.908  0.245E-02  0.301E-03  0.579E-03  0.664E-03  0.442E-03  0.459E-03
  41.008  0.233E-02  0.297E-03  0.525E-03  0.609E-03  0.440E-03  0.455E-03
  41.108  0.216E-02  0.279E-03  0.473E-03  0.539E-03  0.421E-03  0.444E-03
  41.208  0.188E-02  0.240E-03  0.405E-03  0.447E-03  0.371E-03  0.417E-03
  41.308  0.155E-02  0.194E-03  0.327E-03  0.349E-03  0.303E-03  0.381E-03
  41.408  0.127E-02  0.156E-03  0.258E-03  0.268E-03  0.240E-03  0.346E-03
  41.508  0.104E-02  0.127E-03  0.205E-03  0.208E-03  0.189E-03  0.307E-03
  41.608  0.817E-03  0.101E-03  0.161E-03  0.160E-03  0.143E-03  0.251E-03
  41.708  0.592E-03  0.736E-04  0.123E-03  0.118E-03  0.997E-04  0.178E-03
  41.808  0.391E-03  0.471E-04  0.904E-04  0.808E-04  0.628E-04  0.110E-03
  41.908  0.241E-03  0.268E-04  0.640E-04  0.524E-04  0.368E-04  0.606E-04
  42.008  0.139E-03  0.140E-04  0.419E-04  0.316E-04  0.204E-04  0.317E-04
  42.108  0.739E-04  0.670E-05  0.239E-04  0.170E-04  0.104E-04  0.159E-04
  42.208  0.338E-04  0.285E-05  0.114E-04  0.771E-05  0.464E-05  0.719E-05
  42.308  0.127E-04  0.102E-05  0.440E-05  0.285E-05  0.170E-05  0.275E-05
  42.408  0.383E-05  0.294E-06  0.135E-05  0.838E-06  0.497E-06  0.849E-06
  42.508  0.904E-06  0.670E-07  0.324E-06  0.193E-06  0.114E-06  0.206E-06
  42.608  0.166E-06  0.118E-07  0.609E-07  0.345E-07  0.205E-07  0.387E-07
  42.708  0.237E-07  0.162E-08  0.886E-08  0.479E-08  0.285E-08  0.561E-08
  42.808  0.261E-08  0.170E-09  0.996E-09  0.514E-09  0.306E-09  0.627E-09
