# E (eV)   ldos(E)   pdos(E)    pdos(E)    pdos(E)   
 -16.436  0.503E-07  0.434E-07  0.346E-08  0.347E-08
 -16.336  0.455E-06  0.387E-06  0.343E-07  0.341E-07
 -16.236  0.320E-05  0.267E-05  0.266E-06  0.262E-06
 -16.136  0.175E-04  0.143E-04  0.163E-05  0.158E-05
 -16.036  0.751E-04  0.597E-04  0.787E-05  0.757E-05
 -15.936  0.255E-03  0.196E-03  0.304E-04  0.289E-04
 -15.836  0.693E-03  0.510E-03  0.947E-04  0.887E-04
 -15.736  0.153E-02  0.106E-02  0.241E-03  0.223E-03
 -15.636  0.278E-02  0.180E-02  0.508E-03  0.463E-03
 -15.536  0.427E-02  0.255E-02  0.904E-03  0.816E-03
 -15.436  0.570E-02  0.307E-02  0.139E-02  0.125E-02
 -15.336  0.685E-02  0.325E-02  0.189E-02  0.170E-02
 -15.236  0.769E-02  0.315E-02  0.237E-02  0.217E-02
 -15.136  0.838E-02  0.294E-02  0.279E-02  0.265E-02
 -15.036  0.911E-02  0.278E-02  0.317E-02  0.315E-02
 -14.936  0.994E-02  0.278E-02  0.351E-02  0.365E-02
 -14.836  0.109E-01  0.295E-02  0.383E-02  0.409E-02
 -14.736  0.119E-01  0.333E-02  0.415E-02  0.445E-02
 -14.636  0.132E-01  0.393E-02  0.453E-02  0.477E-02
 -14.536  0.150E-01  0.476E-02  0.506E-02  0.515E-02
 -14.436  0.172E-01  0.574E-02  0.579E-02  0.565E-02
 -14.336  0.196E-01  0.672E-02  0.666E-02  0.624E-02
 -14.236  0.219E-01  0.755E-02  0.753E-02  0.686E-02
 -14.136  0.240E-01  0.822E-02  0.826E-02  0.752E-02
 -14.036  0.257E-01  0.877E-02  0.877E-02  0.819E-02
 -13.936  0.270E-01  0.923E-02  0.905E-02  0.876E-02
 -13.836  0.278E-01  0.964E-02  0.910E-02  0.903E-02
 -13.736  0.278E-01  0.999E-02  0.894E-02  0.887E-02
 -13.636  0.269E-01  0.101E-01  0.851E-02  0.826E-02
 -13.536  0.249E-01  0.989E-02  0.772E-02  0.729E-02
 -13.436  0.217E-01  0.907E-02  0.659E-02  0.608E-02
 -13.336  0.176E-01  0.765E-02  0.524E-02  0.474E-02
 -13.236  0.130E-01  0.580E-02  0.382E-02  0.340E-02
 -13.136  0.854E-02  0.386E-02  0.249E-02  0.218E-02
 -13.036  0.487E-02  0.222E-02  0.142E-02  0.123E-02
 -12.936  0.237E-02  0.109E-02  0.689E-03  0.591E-03
 -12.836  0.971E-03  0.453E-03  0.279E-03  0.239E-03
 -12.736  0.331E-03  0.157E-03  0.934E-04  0.801E-04
 -12.636  0.925E-04  0.452E-04  0.254E-04  0.219E-04
 -12.536  0.211E-04  0.107E-04  0.560E-05  0.482E-05
 -12.436  0.388E-05  0.204E-05  0.989E-06  0.849E-06
 -12.336  0.573E-06  0.314E-06  0.139E-06  0.119E-06
 -12.236  0.672E-07  0.384E-07  0.156E-07  0.132E-07
 -12.136  0.623E-08  0.371E-08  0.138E-08  0.115E-08
 -12.036  0.454E-09  0.280E-09  0.957E-10  0.786E-10
 -11.936  0.258E-10  0.164E-10  0.520E-11  0.420E-11
 -11.836  0.114E-11  0.749E-12  0.220E-12  0.175E-12
 -11.736  0.390E-13  0.262E-13  0.715E-14  0.562E-14
 -11.636  0.972E-15  0.686E-15  0.163E-15  0.122E-15
 -11.536  0.000E+00  0.000E+00  0.000E+00  0.000E+00
 -11.436  0.000E+00  0.000E+00  0.000E+00  0.000E+00
 -11.336  0.000E+00  0.000E+00  0.000E+00  0.000E+00
 -11.236  0.000E+00  0.000E+00  0.000E+00  0.000E+00
 -11.136  0.000E+00  0.000E+00  0.000E+00  0.000E+00
 -11.036  0.000E+00  0.000E+00  0.000E+00  0.000E+00
 -10.936  0.000E+00  0.000E+00  0.000E+00  0.000E+00
 -10.836  0.000E+00  0.000E+00  0.000E+00  0.000E+00
 -10.736  0.000E+00  0.000E+00  0.000E+00  0.000E+00
 -10.636  0.000E+00  0.000E+00  0.000E+00  0.000E+00
 -10.536  0.000E+00  0.000E+00  0.000E+00  0.000E+00
 -10.436  0.000E+00  0.000E+00  0.000E+00  0.000E+00
 -10.336  0.000E+00  0.000E+00  0.000E+00  0.000E+00
 -10.236  0.000E+00  0.000E+00  0.000E+00  0.000E+00
 -10.136  0.000E+00  0.000E+00  0.000E+00  0.000E+00
 -10.036  0.000E+00  0.000E+00  0.000E+00  0.000E+00
  -9.936  0.000E+00  0.000E+00  0.000E+00  0.000E+00
  -9.836  0.000E+00  0.000E+00  0.000E+00  0.000E+00
  -9.736  0.000E+00  0.000E+00  0.000E+00  0.000E+00
  -9.636  0.000E+00  0.000E+00  0.000E+00  0.000E+00
  -9.536  0.000E+00  0.000E+00  0.000E+00  0.000E+00
  -9.436  0.000E+00  0.000E+00  0.000E+00  0.000E+00
  -9.336  0.000E+00  0.000E+00  0.000E+00  0.000E+00
  -9.236  0.000E+00  0.000E+00  0.000E+00  0.000E+00
  -9.136  0.000E+00  0.000E+00  0.000E+00  0.000E+00
  -9.036  0.000E+00  0.000E+00  0.000E+00  0.000E+00
  -8.936  0.000E+00  0.000E+00  0.000E+00  0.000E+00
  -8.836  0.000E+00  0.000E+00  0.000E+00  0.000E+00
  -8.736  0.996E-13  0.283E-15  0.571E-13  0.422E-13
  -8.636  0.453E-11  0.120E-13  0.264E-11  0.188E-11
  -8.536  0.139E-09  0.365E-12  0.815E-10  0.575E-10
  -8.436  0.329E-08  0.852E-11  0.193E-08  0.135E-08
  -8.336  0.596E-07  0.153E-09  0.350E-07  0.244E-07
  -8.236  0.829E-06  0.213E-08  0.489E-06  0.338E-06
  -8.136  0.887E-05  0.232E-07  0.525E-05  0.360E-05
  -8.036  0.732E-04  0.203E-06  0.434E-04  0.296E-04
  -7.936  0.466E-03  0.147E-05  0.277E-03  0.188E-03
  -7.836  0.230E-02  0.922E-05  0.136E-02  0.928E-03
  -7.736  0.884E-02  0.522E-04  0.520E-02  0.358E-02
  -7.636  0.267E-01  0.267E-03  0.155E-01  0.109E-01
  -7.536  0.645E-01  0.120E-02  0.364E-01  0.269E-01
  -7.436  0.128E+00  0.455E-02  0.686E-01  0.546E-01
  -7.336  0.216E+00  0.143E-01  0.107E+00  0.944E-01
  -7.236  0.326E+00  0.366E-01  0.146E+00  0.144E+00
  -7.136  0.460E+00  0.773E-01  0.184E+00  0.199E+00
  -7.036  0.619E+00  0.135E+00  0.226E+00  0.257E+00
  -6.936  0.788E+00  0.201E+00  0.276E+00  0.311E+00
  -6.836  0.936E+00  0.261E+00  0.323E+00  0.351E+00
  -6.736  0.103E+01  0.305E+00  0.355E+00  0.366E+00
  -6.636  0.104E+01  0.327E+00  0.361E+00  0.350E+00
  -6.536  0.979E+00  0.324E+00  0.344E+00  0.311E+00
  -6.436  0.867E+00  0.295E+00  0.309E+00  0.263E+00
  -6.336  0.731E+00  0.248E+00  0.261E+00  0.221E+00
  -6.236  0.598E+00  0.197E+00  0.209E+00  0.191E+00
  -6.136  0.489E+00  0.156E+00  0.162E+00  0.170E+00
  -6.036  0.414E+00  0.129E+00  0.129E+00  0.157E+00
  -5.936  0.363E+00  0.110E+00  0.109E+00  0.144E+00
  -5.836  0.326E+00  0.967E-01  0.991E-01  0.130E+00
  -5.736  0.306E+00  0.927E-01  0.960E-01  0.117E+00
  -5.636  0.321E+00  0.108E+00  0.101E+00  0.112E+00
  -5.536  0.384E+00  0.150E+00  0.116E+00  0.118E+00
  -5.436  0.486E+00  0.213E+00  0.140E+00  0.133E+00
  -5.336  0.594E+00  0.275E+00  0.166E+00  0.152E+00
  -5.236  0.668E+00  0.315E+00  0.186E+00  0.167E+00
  -5.136  0.693E+00  0.322E+00  0.194E+00  0.176E+00
  -5.036  0.683E+00  0.305E+00  0.195E+00  0.182E+00
  -4.936  0.672E+00  0.283E+00  0.199E+00  0.189E+00
  -4.836  0.688E+00  0.268E+00  0.216E+00  0.204E+00
  -4.736  0.737E+00  0.263E+00  0.245E+00  0.228E+00
  -4.636  0.797E+00  0.263E+00  0.279E+00  0.256E+00
  -4.536  0.833E+00  0.257E+00  0.301E+00  0.275E+00
  -4.436  0.822E+00  0.241E+00  0.306E+00  0.275E+00
  -4.336  0.768E+00  0.218E+00  0.294E+00  0.256E+00
  -4.236  0.699E+00  0.196E+00  0.274E+00  0.230E+00
  -4.136  0.640E+00  0.181E+00  0.252E+00  0.206E+00
  -4.036  0.597E+00  0.175E+00  0.230E+00  0.191E+00
  -3.936  0.562E+00  0.175E+00  0.206E+00  0.181E+00
  -3.836  0.538E+00  0.181E+00  0.185E+00  0.173E+00
  -3.736  0.537E+00  0.195E+00  0.174E+00  0.167E+00
  -3.636  0.564E+00  0.218E+00  0.179E+00  0.168E+00
  -3.536  0.615E+00  0.243E+00  0.194E+00  0.178E+00
  -3.436  0.680E+00  0.268E+00  0.212E+00  0.200E+00
  -3.336  0.755E+00  0.295E+00  0.228E+00  0.232E+00
  -3.236  0.830E+00  0.327E+00  0.237E+00  0.266E+00
  -3.136  0.886E+00  0.356E+00  0.239E+00  0.291E+00
  -3.036  0.903E+00  0.370E+00  0.233E+00  0.301E+00
  -2.936  0.879E+00  0.363E+00  0.221E+00  0.295E+00
  -2.836  0.825E+00  0.338E+00  0.206E+00  0.282E+00
  -2.736  0.756E+00  0.303E+00  0.189E+00  0.264E+00
  -2.636  0.679E+00  0.265E+00  0.172E+00  0.241E+00
  -2.536  0.601E+00  0.231E+00  0.157E+00  0.212E+00
  -2.436  0.530E+00  0.205E+00  0.146E+00  0.179E+00
  -2.336  0.478E+00  0.186E+00  0.140E+00  0.152E+00
  -2.236  0.448E+00  0.175E+00  0.137E+00  0.137E+00
  -2.136  0.437E+00  0.168E+00  0.135E+00  0.134E+00
  -2.036  0.435E+00  0.165E+00  0.134E+00  0.136E+00
  -1.936  0.427E+00  0.162E+00  0.130E+00  0.136E+00
  -1.836  0.405E+00  0.156E+00  0.120E+00  0.129E+00
  -1.736  0.370E+00  0.148E+00  0.106E+00  0.116E+00
  -1.636  0.328E+00  0.138E+00  0.881E-01  0.102E+00
  -1.536  0.286E+00  0.125E+00  0.704E-01  0.898E-01
  -1.436  0.240E+00  0.107E+00  0.547E-01  0.785E-01
  -1.336  0.189E+00  0.821E-01  0.414E-01  0.656E-01
  -1.236  0.136E+00  0.560E-01  0.299E-01  0.497E-01
  -1.136  0.859E-01  0.334E-01  0.197E-01  0.327E-01
  -1.036  0.467E-01  0.172E-01  0.114E-01  0.181E-01
  -0.936  0.213E-01  0.753E-02  0.553E-02  0.825E-02
  -0.836  0.799E-02  0.275E-02  0.220E-02  0.304E-02
  -0.736  0.243E-02  0.824E-03  0.705E-03  0.902E-03
  -0.636  0.601E-03  0.201E-03  0.186E-03  0.213E-03
  -0.536  0.185E-03  0.532E-04  0.891E-04  0.430E-04
  -0.436  0.473E-03  0.981E-04  0.348E-03  0.260E-04
  -0.336  0.227E-02  0.452E-03  0.171E-02  0.101E-03
  -0.236  0.868E-02  0.170E-02  0.660E-02  0.383E-03
  -0.136  0.257E-01  0.495E-02  0.196E-01  0.113E-02
  -0.036  0.591E-01  0.112E-01  0.453E-01  0.259E-02
   0.064  0.105E+00  0.195E-01  0.813E-01  0.460E-02
   0.164  0.147E+00  0.264E-01  0.114E+00  0.637E-02
   0.264  0.160E+00  0.280E-01  0.125E+00  0.691E-02
   0.364  0.137E+00  0.234E-01  0.107E+00  0.599E-02
   0.464  0.939E-01  0.157E-01  0.735E-01  0.461E-02
   0.564  0.568E-01  0.997E-02  0.419E-01  0.491E-02
   0.664  0.459E-01  0.103E-01  0.256E-01  0.101E-01
   0.764  0.714E-01  0.197E-01  0.278E-01  0.239E-01
   0.864  0.133E+00  0.392E-01  0.454E-01  0.488E-01
   0.964  0.220E+00  0.654E-01  0.716E-01  0.825E-01
   1.064  0.307E+00  0.901E-01  0.986E-01  0.119E+00
   1.164  0.380E+00  0.106E+00  0.122E+00  0.152E+00
   1.264  0.439E+00  0.115E+00  0.142E+00  0.182E+00
   1.364  0.494E+00  0.121E+00  0.162E+00  0.211E+00
   1.464  0.551E+00  0.129E+00  0.185E+00  0.237E+00
   1.564  0.606E+00  0.138E+00  0.211E+00  0.257E+00
   1.664  0.656E+00  0.146E+00  0.240E+00  0.270E+00
   1.764  0.692E+00  0.153E+00  0.266E+00  0.273E+00
   1.864  0.705E+00  0.157E+00  0.281E+00  0.267E+00
   1.964  0.688E+00  0.157E+00  0.278E+00  0.254E+00
   2.064  0.639E+00  0.148E+00  0.256E+00  0.234E+00
   2.164  0.557E+00  0.132E+00  0.219E+00  0.205E+00
   2.264  0.445E+00  0.109E+00  0.170E+00  0.166E+00
   2.364  0.315E+00  0.811E-01  0.116E+00  0.118E+00
   2.464  0.192E+00  0.536E-01  0.680E-01  0.708E-01
   2.564  0.999E-01  0.312E-01  0.334E-01  0.352E-01
   2.664  0.438E-01  0.160E-01  0.136E-01  0.142E-01
   2.764  0.162E-01  0.709E-02  0.451E-02  0.463E-02
   2.864  0.511E-02  0.268E-02  0.123E-02  0.121E-02
   2.964  0.137E-02  0.841E-03  0.273E-03  0.253E-03
   3.064  0.307E-03  0.214E-03  0.500E-04  0.426E-04
   3.164  0.570E-04  0.435E-04  0.755E-05  0.585E-05
   3.264  0.858E-05  0.697E-05  0.941E-06  0.661E-06
   3.364  0.103E-05  0.872E-06  0.961E-07  0.618E-07
   3.464  0.976E-07  0.848E-07  0.797E-08  0.479E-08
