# E (eV)   ldos(E)   pdos(E)    pdos(E)    pdos(E)   
 -16.436  0.503E-07  0.434E-07  0.395E-08  0.298E-08
 -16.336  0.455E-06  0.387E-06  0.390E-07  0.294E-07
 -16.236  0.320E-05  0.267E-05  0.302E-06  0.226E-06
 -16.136  0.175E-04  0.143E-04  0.184E-05  0.137E-05
 -16.036  0.751E-04  0.597E-04  0.888E-05  0.655E-05
 -15.936  0.255E-03  0.196E-03  0.343E-04  0.250E-04
 -15.836  0.693E-03  0.510E-03  0.107E-03  0.766E-04
 -15.736  0.153E-02  0.106E-02  0.272E-03  0.192E-03
 -15.636  0.278E-02  0.181E-02  0.575E-03  0.397E-03
 -15.536  0.428E-02  0.256E-02  0.102E-02  0.697E-03
 -15.436  0.574E-02  0.311E-02  0.156E-02  0.107E-02
 -15.336  0.693E-02  0.334E-02  0.210E-02  0.149E-02
 -15.236  0.784E-02  0.330E-02  0.258E-02  0.196E-02
 -15.136  0.859E-02  0.315E-02  0.298E-02  0.246E-02
 -15.036  0.933E-02  0.301E-02  0.333E-02  0.299E-02
 -14.936  0.101E-01  0.297E-02  0.367E-02  0.350E-02
 -14.836  0.110E-01  0.310E-02  0.399E-02  0.394E-02
 -14.736  0.120E-01  0.344E-02  0.430E-02  0.430E-02
 -14.636  0.133E-01  0.403E-02  0.469E-02  0.461E-02
 -14.536  0.151E-01  0.488E-02  0.524E-02  0.497E-02
 -14.436  0.173E-01  0.588E-02  0.600E-02  0.544E-02
 -14.336  0.197E-01  0.685E-02  0.682E-02  0.607E-02
 -14.236  0.220E-01  0.764E-02  0.750E-02  0.689E-02
 -14.136  0.240E-01  0.822E-02  0.791E-02  0.787E-02
 -14.036  0.256E-01  0.864E-02  0.808E-02  0.889E-02
 -13.936  0.268E-01  0.896E-02  0.813E-02  0.968E-02
 -13.836  0.274E-01  0.928E-02  0.810E-02  0.100E-01
 -13.736  0.275E-01  0.966E-02  0.796E-02  0.985E-02
 -13.636  0.267E-01  0.997E-02  0.760E-02  0.916E-02
 -13.536  0.249E-01  0.993E-02  0.697E-02  0.803E-02
 -13.436  0.220E-01  0.932E-02  0.605E-02  0.662E-02
 -13.336  0.180E-01  0.805E-02  0.486E-02  0.512E-02
 -13.236  0.135E-01  0.627E-02  0.353E-02  0.369E-02
 -13.136  0.898E-02  0.431E-02  0.225E-02  0.243E-02
 -13.036  0.520E-02  0.255E-02  0.123E-02  0.141E-02
 -12.936  0.257E-02  0.129E-02  0.575E-03  0.705E-03
 -12.836  0.106E-02  0.542E-03  0.226E-03  0.293E-03
 -12.736  0.363E-03  0.189E-03  0.742E-04  0.993E-04
 -12.636  0.102E-03  0.542E-04  0.201E-04  0.272E-04
 -12.536  0.231E-04  0.126E-04  0.444E-05  0.598E-05
 -12.436  0.421E-05  0.238E-05  0.791E-06  0.105E-05
 -12.336  0.616E-06  0.358E-06  0.113E-06  0.146E-06
 -12.236  0.716E-07  0.428E-07  0.127E-07  0.160E-07
 -12.136  0.657E-08  0.405E-08  0.113E-08  0.139E-08
 -12.036  0.475E-09  0.300E-09  0.792E-10  0.951E-10
 -11.936  0.268E-10  0.174E-10  0.432E-11  0.508E-11
 -11.836  0.118E-11  0.783E-12  0.183E-12  0.212E-12
 -11.736  0.399E-13  0.271E-13  0.601E-14  0.676E-14
 -11.636  0.972E-15  0.686E-15  0.136E-15  0.149E-15
 -11.536  0.000E+00  0.000E+00  0.000E+00  0.000E+00
 -11.436  0.000E+00  0.000E+00  0.000E+00  0.000E+00
 -11.336  0.000E+00  0.000E+00  0.000E+00  0.000E+00
 -11.236  0.000E+00  0.000E+00  0.000E+00  0.000E+00
 -11.136  0.000E+00  0.000E+00  0.000E+00  0.000E+00
 -11.036  0.000E+00  0.000E+00  0.000E+00  0.000E+00
 -10.936  0.000E+00  0.000E+00  0.000E+00  0.000E+00
 -10.836  0.000E+00  0.000E+00  0.000E+00  0.000E+00
 -10.736  0.000E+00  0.000E+00  0.000E+00  0.000E+00
 -10.636  0.000E+00  0.000E+00  0.000E+00  0.000E+00
 -10.536  0.000E+00  0.000E+00  0.000E+00  0.000E+00
 -10.436  0.000E+00  0.000E+00  0.000E+00  0.000E+00
 -10.336  0.000E+00  0.000E+00  0.000E+00  0.000E+00
 -10.236  0.000E+00  0.000E+00  0.000E+00  0.000E+00
 -10.136  0.000E+00  0.000E+00  0.000E+00  0.000E+00
 -10.036  0.000E+00  0.000E+00  0.000E+00  0.000E+00
  -9.936  0.000E+00  0.000E+00  0.000E+00  0.000E+00
  -9.836  0.000E+00  0.000E+00  0.000E+00  0.000E+00
  -9.736  0.000E+00  0.000E+00  0.000E+00  0.000E+00
  -9.636  0.000E+00  0.000E+00  0.000E+00  0.000E+00
  -9.536  0.000E+00  0.000E+00  0.000E+00  0.000E+00
  -9.436  0.000E+00  0.000E+00  0.000E+00  0.000E+00
  -9.336  0.000E+00  0.000E+00  0.000E+00  0.000E+00
  -9.236  0.000E+00  0.000E+00  0.000E+00  0.000E+00
  -9.136  0.000E+00  0.000E+00  0.000E+00  0.000E+00
  -9.036  0.000E+00  0.000E+00  0.000E+00  0.000E+00
  -8.936  0.000E+00  0.000E+00  0.000E+00  0.000E+00
  -8.836  0.000E+00  0.000E+00  0.000E+00  0.000E+00
  -8.736  0.995E-13  0.153E-15  0.605E-13  0.388E-13
  -8.636  0.453E-11  0.703E-14  0.278E-11  0.174E-11
  -8.536  0.139E-09  0.219E-12  0.858E-10  0.533E-10
  -8.436  0.328E-08  0.527E-11  0.203E-08  0.125E-08
  -8.336  0.595E-07  0.975E-10  0.368E-07  0.226E-07
  -8.236  0.828E-06  0.141E-08  0.513E-06  0.313E-06
  -8.136  0.887E-05  0.160E-07  0.551E-05  0.334E-05
  -8.036  0.731E-04  0.148E-06  0.455E-04  0.275E-04
  -7.936  0.466E-03  0.115E-05  0.290E-03  0.174E-03
  -7.836  0.230E-02  0.780E-05  0.143E-02  0.858E-03
  -7.736  0.883E-02  0.475E-04  0.550E-02  0.329E-02
  -7.636  0.267E-01  0.257E-03  0.165E-01  0.995E-02
  -7.536  0.645E-01  0.119E-02  0.393E-01  0.241E-01
  -7.436  0.128E+00  0.458E-02  0.753E-01  0.479E-01
  -7.336  0.216E+00  0.145E-01  0.120E+00  0.815E-01
  -7.236  0.327E+00  0.374E-01  0.166E+00  0.124E+00
  -7.136  0.462E+00  0.788E-01  0.208E+00  0.175E+00
  -7.036  0.621E+00  0.138E+00  0.248E+00  0.235E+00
  -6.936  0.791E+00  0.204E+00  0.288E+00  0.299E+00
  -6.836  0.937E+00  0.263E+00  0.321E+00  0.353E+00
  -6.736  0.102E+01  0.303E+00  0.337E+00  0.384E+00
  -6.636  0.103E+01  0.322E+00  0.327E+00  0.385E+00
  -6.536  0.971E+00  0.317E+00  0.296E+00  0.359E+00
  -6.436  0.861E+00  0.289E+00  0.257E+00  0.315E+00
  -6.336  0.732E+00  0.249E+00  0.223E+00  0.260E+00
  -6.236  0.610E+00  0.210E+00  0.197E+00  0.203E+00
  -6.136  0.517E+00  0.184E+00  0.177E+00  0.156E+00
  -6.036  0.455E+00  0.170E+00  0.157E+00  0.128E+00
  -5.936  0.410E+00  0.157E+00  0.138E+00  0.115E+00
  -5.836  0.369E+00  0.139E+00  0.120E+00  0.110E+00
  -5.736  0.338E+00  0.125E+00  0.107E+00  0.106E+00
  -5.636  0.342E+00  0.130E+00  0.104E+00  0.108E+00
  -5.536  0.398E+00  0.164E+00  0.113E+00  0.120E+00
  -5.436  0.494E+00  0.221E+00  0.131E+00  0.142E+00
  -5.336  0.597E+00  0.279E+00  0.152E+00  0.166E+00
  -5.236  0.669E+00  0.316E+00  0.171E+00  0.182E+00
  -5.136  0.694E+00  0.323E+00  0.183E+00  0.188E+00
  -5.036  0.684E+00  0.307E+00  0.189E+00  0.188E+00
  -4.936  0.671E+00  0.283E+00  0.194E+00  0.195E+00
  -4.836  0.683E+00  0.263E+00  0.202E+00  0.217E+00
  -4.736  0.726E+00  0.252E+00  0.218E+00  0.255E+00
  -4.636  0.781E+00  0.247E+00  0.238E+00  0.296E+00
  -4.536  0.817E+00  0.241E+00  0.257E+00  0.320E+00
  -4.436  0.809E+00  0.228E+00  0.266E+00  0.315E+00
  -4.336  0.760E+00  0.210E+00  0.263E+00  0.287E+00
  -4.236  0.696E+00  0.193E+00  0.254E+00  0.249E+00
  -4.136  0.639E+00  0.181E+00  0.242E+00  0.217E+00
  -4.036  0.595E+00  0.174E+00  0.226E+00  0.196E+00
  -3.936  0.558E+00  0.171E+00  0.204E+00  0.183E+00
  -3.836  0.531E+00  0.173E+00  0.180E+00  0.178E+00
  -3.736  0.525E+00  0.183E+00  0.162E+00  0.180E+00
  -3.636  0.547E+00  0.201E+00  0.157E+00  0.189E+00
  -3.536  0.594E+00  0.223E+00  0.172E+00  0.200E+00
  -3.436  0.660E+00  0.248E+00  0.203E+00  0.209E+00
  -3.336  0.741E+00  0.281E+00  0.242E+00  0.218E+00
  -3.236  0.827E+00  0.324E+00  0.278E+00  0.225E+00
  -3.136  0.895E+00  0.365E+00  0.300E+00  0.230E+00
  -3.036  0.923E+00  0.389E+00  0.304E+00  0.230E+00
  -2.936  0.903E+00  0.386E+00  0.291E+00  0.225E+00
  -2.836  0.848E+00  0.361E+00  0.271E+00  0.217E+00
  -2.736  0.778E+00  0.325E+00  0.248E+00  0.205E+00
  -2.636  0.701E+00  0.288E+00  0.224E+00  0.190E+00
  -2.536  0.625E+00  0.256E+00  0.197E+00  0.172E+00
  -2.436  0.556E+00  0.230E+00  0.171E+00  0.155E+00
  -2.336  0.504E+00  0.212E+00  0.149E+00  0.143E+00
  -2.236  0.473E+00  0.199E+00  0.135E+00  0.139E+00
  -2.136  0.459E+00  0.190E+00  0.129E+00  0.140E+00
  -2.036  0.452E+00  0.183E+00  0.129E+00  0.141E+00
  -1.936  0.441E+00  0.176E+00  0.127E+00  0.138E+00
  -1.836  0.416E+00  0.168E+00  0.121E+00  0.128E+00
  -1.736  0.379E+00  0.157E+00  0.110E+00  0.112E+00
  -1.636  0.336E+00  0.146E+00  0.969E-01  0.932E-01
  -1.536  0.293E+00  0.133E+00  0.852E-01  0.750E-01
  -1.436  0.251E+00  0.118E+00  0.744E-01  0.589E-01
  -1.336  0.205E+00  0.975E-01  0.623E-01  0.447E-01
  -1.236  0.153E+00  0.734E-01  0.477E-01  0.319E-01
  -1.136  0.101E+00  0.489E-01  0.321E-01  0.203E-01
  -1.036  0.575E-01  0.280E-01  0.184E-01  0.111E-01
  -0.936  0.272E-01  0.134E-01  0.876E-02  0.502E-02
  -0.836  0.105E-01  0.530E-02  0.341E-02  0.183E-02
  -0.736  0.330E-02  0.169E-02  0.107E-02  0.536E-03
  -0.636  0.834E-03  0.435E-03  0.271E-03  0.129E-03
  -0.536  0.235E-03  0.103E-03  0.725E-04  0.595E-04
  -0.436  0.484E-03  0.110E-03  0.132E-03  0.242E-03
  -0.336  0.228E-02  0.473E-03  0.621E-03  0.119E-02
  -0.236  0.876E-02  0.179E-02  0.240E-02  0.458E-02
  -0.136  0.260E-01  0.522E-02  0.715E-02  0.136E-01
  -0.036  0.597E-01  0.118E-01  0.166E-01  0.313E-01
   0.064  0.107E+00  0.208E-01  0.299E-01  0.559E-01
   0.164  0.149E+00  0.286E-01  0.422E-01  0.779E-01
   0.264  0.162E+00  0.308E-01  0.467E-01  0.848E-01
   0.364  0.140E+00  0.262E-01  0.408E-01  0.726E-01
   0.464  0.962E-01  0.180E-01  0.288E-01  0.493E-01
   0.564  0.584E-01  0.115E-01  0.187E-01  0.281E-01
   0.664  0.471E-01  0.115E-01  0.176E-01  0.181E-01
   0.764  0.732E-01  0.215E-01  0.297E-01  0.221E-01
   0.864  0.137E+00  0.431E-01  0.552E-01  0.391E-01
   0.964  0.227E+00  0.729E-01  0.884E-01  0.658E-01
   1.064  0.319E+00  0.101E+00  0.120E+00  0.975E-01
   1.164  0.394E+00  0.120E+00  0.143E+00  0.131E+00
   1.264  0.451E+00  0.127E+00  0.160E+00  0.165E+00
   1.364  0.502E+00  0.128E+00  0.180E+00  0.193E+00
   1.464  0.554E+00  0.131E+00  0.209E+00  0.213E+00
   1.564  0.609E+00  0.140E+00  0.244E+00  0.225E+00
   1.664  0.663E+00  0.153E+00  0.275E+00  0.235E+00
   1.764  0.703E+00  0.164E+00  0.292E+00  0.247E+00
   1.864  0.715E+00  0.167E+00  0.290E+00  0.258E+00
   1.964  0.691E+00  0.160E+00  0.272E+00  0.259E+00
   2.064  0.635E+00  0.144E+00  0.247E+00  0.244E+00
   2.164  0.549E+00  0.124E+00  0.215E+00  0.210E+00
   2.264  0.437E+00  0.101E+00  0.174E+00  0.162E+00
   2.364  0.310E+00  0.764E-01  0.125E+00  0.109E+00
   2.464  0.191E+00  0.519E-01  0.763E-01  0.627E-01
   2.564  0.100E+00  0.313E-01  0.386E-01  0.301E-01
   2.664  0.443E-01  0.165E-01  0.160E-01  0.118E-01
   2.764  0.167E-01  0.756E-02  0.532E-02  0.379E-02
   2.864  0.534E-02  0.293E-02  0.143E-02  0.985E-03
   2.964  0.146E-02  0.940E-03  0.309E-03  0.207E-03
   3.064  0.334E-03  0.244E-03  0.541E-04  0.354E-04
   3.164  0.631E-04  0.504E-04  0.769E-05  0.493E-05
   3.264  0.965E-05  0.820E-05  0.892E-06  0.562E-06
   3.364  0.118E-05  0.104E-05  0.841E-07  0.525E-07
   3.464  0.113E-06  0.103E-06  0.643E-08  0.399E-08
