# E (eV)   ldos(E)   pdos(E)    pdos(E)    pdos(E)   
 -16.436  0.513E-07  0.452E-07  0.333E-08  0.281E-08
 -16.336  0.462E-06  0.402E-06  0.326E-07  0.270E-07
 -16.236  0.322E-05  0.277E-05  0.249E-06  0.202E-06
 -16.136  0.175E-04  0.148E-04  0.150E-05  0.119E-05
 -16.036  0.747E-04  0.620E-04  0.715E-05  0.556E-05
 -15.936  0.251E-03  0.203E-03  0.273E-04  0.207E-04
 -15.836  0.673E-03  0.527E-03  0.839E-04  0.623E-04
 -15.736  0.146E-02  0.110E-02  0.211E-03  0.153E-03
 -15.636  0.261E-02  0.185E-02  0.441E-03  0.313E-03
 -15.536  0.392E-02  0.260E-02  0.778E-03  0.541E-03
 -15.436  0.508E-02  0.309E-02  0.118E-02  0.807E-03
 -15.336  0.588E-02  0.323E-02  0.159E-02  0.107E-02
 -15.236  0.631E-02  0.306E-02  0.194E-02  0.131E-02
 -15.136  0.655E-02  0.279E-02  0.224E-02  0.152E-02
 -15.036  0.683E-02  0.260E-02  0.250E-02  0.172E-02
 -14.936  0.726E-02  0.260E-02  0.274E-02  0.192E-02
 -14.836  0.788E-02  0.278E-02  0.298E-02  0.212E-02
 -14.736  0.869E-02  0.313E-02  0.325E-02  0.231E-02
 -14.636  0.977E-02  0.363E-02  0.360E-02  0.254E-02
 -14.536  0.112E-01  0.428E-02  0.407E-02  0.288E-02
 -14.436  0.131E-01  0.504E-02  0.468E-02  0.337E-02
 -14.336  0.151E-01  0.578E-02  0.540E-02  0.396E-02
 -14.236  0.171E-01  0.643E-02  0.613E-02  0.454E-02
 -14.136  0.188E-01  0.693E-02  0.685E-02  0.504E-02
 -14.036  0.204E-01  0.734E-02  0.754E-02  0.548E-02
 -13.936  0.218E-01  0.771E-02  0.820E-02  0.588E-02
 -13.836  0.232E-01  0.815E-02  0.878E-02  0.623E-02
 -13.736  0.243E-01  0.866E-02  0.917E-02  0.647E-02
 -13.636  0.249E-01  0.912E-02  0.921E-02  0.655E-02
 -13.536  0.245E-01  0.928E-02  0.874E-02  0.644E-02
 -13.436  0.229E-01  0.902E-02  0.773E-02  0.612E-02
 -13.336  0.202E-01  0.832E-02  0.630E-02  0.554E-02
 -13.236  0.165E-01  0.718E-02  0.467E-02  0.466E-02
 -13.136  0.123E-01  0.567E-02  0.310E-02  0.352E-02
 -13.036  0.808E-02  0.396E-02  0.181E-02  0.231E-02
 -12.936  0.456E-02  0.238E-02  0.908E-03  0.128E-02
 -12.836  0.216E-02  0.119E-02  0.387E-03  0.584E-03
 -12.736  0.844E-03  0.490E-03  0.137E-03  0.217E-03
 -12.636  0.267E-03  0.163E-03  0.397E-04  0.644E-04
 -12.536  0.679E-04  0.433E-04  0.933E-05  0.152E-04
 -12.436  0.137E-04  0.911E-05  0.175E-05  0.286E-05
 -12.336  0.219E-05  0.151E-05  0.260E-06  0.423E-06
 -12.236  0.274E-06  0.194E-06  0.305E-07  0.493E-07
 -12.136  0.268E-07  0.195E-07  0.280E-08  0.449E-08
 -12.036  0.204E-08  0.152E-08  0.200E-09  0.321E-09
 -11.936  0.120E-09  0.910E-10  0.111E-10  0.178E-10
 -11.836  0.546E-11  0.421E-11  0.481E-12  0.770E-12
 -11.736  0.191E-12  0.150E-12  0.160E-13  0.257E-13
 -11.636  0.496E-14  0.400E-14  0.375E-15  0.593E-15
 -11.536  0.000E+00  0.000E+00  0.000E+00  0.000E+00
 -11.436  0.000E+00  0.000E+00  0.000E+00  0.000E+00
 -11.336  0.000E+00  0.000E+00  0.000E+00  0.000E+00
 -11.236  0.000E+00  0.000E+00  0.000E+00  0.000E+00
 -11.136  0.000E+00  0.000E+00  0.000E+00  0.000E+00
 -11.036  0.000E+00  0.000E+00  0.000E+00  0.000E+00
 -10.936  0.000E+00  0.000E+00  0.000E+00  0.000E+00
 -10.836  0.000E+00  0.000E+00  0.000E+00  0.000E+00
 -10.736  0.000E+00  0.000E+00  0.000E+00  0.000E+00
 -10.636  0.000E+00  0.000E+00  0.000E+00  0.000E+00
 -10.536  0.000E+00  0.000E+00  0.000E+00  0.000E+00
 -10.436  0.000E+00  0.000E+00  0.000E+00  0.000E+00
 -10.336  0.000E+00  0.000E+00  0.000E+00  0.000E+00
 -10.236  0.000E+00  0.000E+00  0.000E+00  0.000E+00
 -10.136  0.000E+00  0.000E+00  0.000E+00  0.000E+00
 -10.036  0.000E+00  0.000E+00  0.000E+00  0.000E+00
  -9.936  0.000E+00  0.000E+00  0.000E+00  0.000E+00
  -9.836  0.000E+00  0.000E+00  0.000E+00  0.000E+00
  -9.736  0.000E+00  0.000E+00  0.000E+00  0.000E+00
  -9.636  0.000E+00  0.000E+00  0.000E+00  0.000E+00
  -9.536  0.000E+00  0.000E+00  0.000E+00  0.000E+00
  -9.436  0.000E+00  0.000E+00  0.000E+00  0.000E+00
  -9.336  0.000E+00  0.000E+00  0.000E+00  0.000E+00
  -9.236  0.000E+00  0.000E+00  0.000E+00  0.000E+00
  -9.136  0.000E+00  0.000E+00  0.000E+00  0.000E+00
  -9.036  0.000E+00  0.000E+00  0.000E+00  0.000E+00
  -8.936  0.000E+00  0.000E+00  0.000E+00  0.000E+00
  -8.836  0.000E+00  0.000E+00  0.000E+00  0.000E+00
  -8.736  0.649E-13  0.410E-15  0.465E-13  0.180E-13
  -8.636  0.299E-11  0.179E-13  0.216E-11  0.806E-12
  -8.536  0.920E-10  0.547E-12  0.667E-10  0.247E-10
  -8.436  0.217E-08  0.128E-10  0.158E-08  0.582E-09
  -8.336  0.395E-07  0.231E-09  0.287E-07  0.105E-07
  -8.236  0.550E-06  0.323E-08  0.401E-06  0.146E-06
  -8.136  0.590E-05  0.351E-07  0.431E-05  0.156E-05
  -8.036  0.488E-04  0.301E-06  0.357E-04  0.128E-04
  -7.936  0.311E-03  0.210E-05  0.228E-03  0.813E-04
  -7.836  0.153E-02  0.123E-04  0.112E-02  0.401E-03
  -7.736  0.589E-02  0.629E-04  0.429E-02  0.154E-02
  -7.636  0.177E-01  0.291E-03  0.128E-01  0.467E-02
  -7.536  0.424E-01  0.120E-02  0.299E-01  0.113E-01
  -7.436  0.829E-01  0.432E-02  0.560E-01  0.226E-01
  -7.336  0.138E+00  0.130E-01  0.863E-01  0.382E-01
  -7.236  0.204E+00  0.327E-01  0.115E+00  0.571E-01
  -7.136  0.285E+00  0.674E-01  0.139E+00  0.788E-01
  -7.036  0.384E+00  0.116E+00  0.164E+00  0.104E+00
  -6.936  0.499E+00  0.168E+00  0.195E+00  0.136E+00
  -6.836  0.623E+00  0.215E+00  0.235E+00  0.173E+00
  -6.736  0.745E+00  0.251E+00  0.281E+00  0.213E+00
  -6.636  0.846E+00  0.276E+00  0.326E+00  0.245E+00
  -6.536  0.897E+00  0.285E+00  0.352E+00  0.261E+00
  -6.436  0.874E+00  0.269E+00  0.344E+00  0.260E+00
  -6.336  0.786E+00  0.229E+00  0.302E+00  0.255E+00
  -6.236  0.683E+00  0.178E+00  0.243E+00  0.262E+00
  -6.136  0.614E+00  0.135E+00  0.187E+00  0.292E+00
  -6.036  0.587E+00  0.109E+00  0.148E+00  0.330E+00
  -5.936  0.566E+00  0.946E-01  0.126E+00  0.346E+00
  -5.836  0.520E+00  0.855E-01  0.114E+00  0.320E+00
  -5.736  0.462E+00  0.842E-01  0.111E+00  0.266E+00
  -5.636  0.431E+00  0.101E+00  0.117E+00  0.213E+00
  -5.536  0.454E+00  0.141E+00  0.131E+00  0.181E+00
  -5.436  0.520E+00  0.201E+00  0.151E+00  0.169E+00
  -5.336  0.595E+00  0.260E+00  0.168E+00  0.167E+00
  -5.236  0.646E+00  0.299E+00  0.177E+00  0.170E+00
  -5.136  0.667E+00  0.309E+00  0.178E+00  0.180E+00
  -5.036  0.675E+00  0.297E+00  0.178E+00  0.200E+00
  -4.936  0.690E+00  0.280E+00  0.184E+00  0.226E+00
  -4.836  0.722E+00  0.266E+00  0.205E+00  0.251E+00
  -4.736  0.770E+00  0.260E+00  0.241E+00  0.270E+00
  -4.636  0.826E+00  0.261E+00  0.283E+00  0.282E+00
  -4.536  0.867E+00  0.265E+00  0.315E+00  0.287E+00
  -4.436  0.874E+00  0.266E+00  0.326E+00  0.282E+00
  -4.336  0.844E+00  0.261E+00  0.317E+00  0.266E+00
  -4.236  0.795E+00  0.252E+00  0.298E+00  0.244E+00
  -4.136  0.744E+00  0.242E+00  0.280E+00  0.222E+00
  -4.036  0.694E+00  0.229E+00  0.262E+00  0.202E+00
  -3.936  0.637E+00  0.213E+00  0.241E+00  0.184E+00
  -3.836  0.577E+00  0.197E+00  0.213E+00  0.167E+00
  -3.736  0.528E+00  0.190E+00  0.186E+00  0.152E+00
  -3.636  0.501E+00  0.194E+00  0.164E+00  0.142E+00
  -3.536  0.499E+00  0.206E+00  0.152E+00  0.141E+00
  -3.436  0.525E+00  0.222E+00  0.152E+00  0.152E+00
  -3.336  0.587E+00  0.243E+00  0.167E+00  0.176E+00
  -3.236  0.679E+00  0.273E+00  0.195E+00  0.210E+00
  -3.136  0.774E+00  0.306E+00  0.223E+00  0.245E+00
  -3.036  0.834E+00  0.326E+00  0.238E+00  0.270E+00
  -2.936  0.845E+00  0.326E+00  0.235E+00  0.283E+00
  -2.836  0.817E+00  0.310E+00  0.223E+00  0.285E+00
  -2.736  0.774E+00  0.286E+00  0.211E+00  0.277E+00
  -2.636  0.728E+00  0.265E+00  0.203E+00  0.260E+00
  -2.536  0.681E+00  0.247E+00  0.196E+00  0.237E+00
  -2.436  0.635E+00  0.233E+00  0.191E+00  0.212E+00
  -2.336  0.596E+00  0.218E+00  0.188E+00  0.191E+00
  -2.236  0.567E+00  0.203E+00  0.186E+00  0.178E+00
  -2.136  0.546E+00  0.190E+00  0.184E+00  0.172E+00
  -2.036  0.524E+00  0.179E+00  0.177E+00  0.168E+00
  -1.936  0.495E+00  0.168E+00  0.165E+00  0.161E+00
  -1.836  0.455E+00  0.160E+00  0.149E+00  0.147E+00
  -1.736  0.412E+00  0.155E+00  0.130E+00  0.126E+00
  -1.636  0.372E+00  0.156E+00  0.113E+00  0.103E+00
  -1.536  0.336E+00  0.154E+00  0.995E-01  0.825E-01
  -1.436  0.296E+00  0.142E+00  0.883E-01  0.658E-01
  -1.336  0.246E+00  0.118E+00  0.759E-01  0.515E-01
  -1.236  0.185E+00  0.871E-01  0.598E-01  0.377E-01
  -1.136  0.122E+00  0.560E-01  0.411E-01  0.246E-01
  -1.036  0.684E-01  0.309E-01  0.238E-01  0.137E-01
  -0.936  0.321E-01  0.144E-01  0.113E-01  0.640E-02
  -0.836  0.123E-01  0.553E-02  0.431E-02  0.244E-02
  -0.736  0.379E-02  0.172E-02  0.132E-02  0.750E-03
  -0.636  0.945E-03  0.436E-03  0.323E-03  0.186E-03
  -0.536  0.267E-03  0.128E-03  0.844E-04  0.551E-04
  -0.436  0.573E-03  0.287E-03  0.157E-03  0.129E-03
  -0.336  0.270E-02  0.136E-02  0.734E-03  0.609E-03
  -0.236  0.103E-01  0.519E-02  0.280E-02  0.229E-02
  -0.136  0.301E-01  0.152E-01  0.826E-02  0.665E-02
  -0.036  0.682E-01  0.344E-01  0.189E-01  0.149E-01
   0.064  0.119E+00  0.602E-01  0.333E-01  0.256E-01
   0.164  0.161E+00  0.814E-01  0.459E-01  0.342E-01
   0.264  0.170E+00  0.856E-01  0.492E-01  0.354E-01
   0.364  0.140E+00  0.703E-01  0.415E-01  0.286E-01
   0.464  0.924E-01  0.457E-01  0.281E-01  0.185E-01
   0.564  0.541E-01  0.252E-01  0.173E-01  0.116E-01
   0.664  0.451E-01  0.169E-01  0.156E-01  0.126E-01
   0.764  0.739E-01  0.231E-01  0.261E-01  0.246E-01
   0.864  0.140E+00  0.426E-01  0.488E-01  0.484E-01
   0.964  0.228E+00  0.692E-01  0.787E-01  0.799E-01
   1.064  0.311E+00  0.930E-01  0.108E+00  0.110E+00
   1.164  0.369E+00  0.106E+00  0.130E+00  0.133E+00
   1.264  0.403E+00  0.108E+00  0.146E+00  0.149E+00
   1.364  0.432E+00  0.107E+00  0.160E+00  0.165E+00
   1.464  0.474E+00  0.111E+00  0.179E+00  0.184E+00
   1.564  0.532E+00  0.120E+00  0.206E+00  0.206E+00
   1.664  0.599E+00  0.134E+00  0.237E+00  0.228E+00
   1.764  0.655E+00  0.149E+00  0.263E+00  0.244E+00
   1.864  0.679E+00  0.159E+00  0.272E+00  0.249E+00
   1.964  0.660E+00  0.160E+00  0.261E+00  0.240E+00
   2.064  0.600E+00  0.152E+00  0.231E+00  0.217E+00
   2.164  0.509E+00  0.134E+00  0.191E+00  0.184E+00
   2.264  0.396E+00  0.107E+00  0.145E+00  0.144E+00
   2.364  0.275E+00  0.759E-01  0.988E-01  0.101E+00
   2.464  0.166E+00  0.464E-01  0.586E-01  0.614E-01
   2.564  0.850E-01  0.238E-01  0.295E-01  0.317E-01
   2.664  0.361E-01  0.102E-01  0.124E-01  0.135E-01
   2.764  0.126E-01  0.357E-02  0.431E-02  0.474E-02
   2.864  0.362E-02  0.104E-02  0.123E-02  0.136E-02
   2.964  0.858E-03  0.251E-03  0.290E-03  0.317E-03
   3.064  0.168E-03  0.509E-04  0.561E-04  0.612E-04
   3.164  0.274E-04  0.870E-05  0.892E-05  0.976E-05
   3.264  0.369E-05  0.124E-05  0.116E-05  0.129E-05
   3.364  0.407E-06  0.145E-06  0.123E-06  0.139E-06
   3.464  0.363E-07  0.137E-07  0.104E-07  0.123E-07
