# E (eV)   ldos(E)   pdos(E)    pdos(E)    pdos(E)   
 -16.436  0.541E-07  0.494E-07  0.231E-08  0.231E-08
 -16.336  0.486E-06  0.441E-06  0.228E-07  0.228E-07
 -16.236  0.339E-05  0.304E-05  0.176E-06  0.176E-06
 -16.136  0.184E-04  0.163E-04  0.107E-05  0.107E-05
 -16.036  0.785E-04  0.682E-04  0.514E-05  0.514E-05
 -15.936  0.263E-03  0.224E-03  0.197E-04  0.197E-04
 -15.836  0.705E-03  0.584E-03  0.606E-04  0.606E-04
 -15.736  0.152E-02  0.122E-02  0.152E-03  0.152E-03
 -15.636  0.271E-02  0.207E-02  0.317E-03  0.317E-03
 -15.536  0.404E-02  0.292E-02  0.561E-03  0.561E-03
 -15.436  0.521E-02  0.347E-02  0.870E-03  0.870E-03
 -15.336  0.602E-02  0.357E-02  0.123E-02  0.123E-02
 -15.236  0.654E-02  0.329E-02  0.163E-02  0.163E-02
 -15.136  0.705E-02  0.289E-02  0.208E-02  0.208E-02
 -15.036  0.780E-02  0.266E-02  0.257E-02  0.257E-02
 -14.936  0.885E-02  0.271E-02  0.307E-02  0.307E-02
 -14.836  0.101E-01  0.300E-02  0.355E-02  0.355E-02
 -14.736  0.114E-01  0.345E-02  0.396E-02  0.396E-02
 -14.636  0.126E-01  0.401E-02  0.429E-02  0.429E-02
 -14.536  0.139E-01  0.470E-02  0.460E-02  0.460E-02
 -14.436  0.156E-01  0.549E-02  0.505E-02  0.505E-02
 -14.336  0.177E-01  0.622E-02  0.573E-02  0.573E-02
 -14.236  0.200E-01  0.674E-02  0.663E-02  0.663E-02
 -14.136  0.221E-01  0.703E-02  0.755E-02  0.755E-02
 -14.036  0.237E-01  0.728E-02  0.819E-02  0.819E-02
 -13.936  0.244E-01  0.772E-02  0.832E-02  0.832E-02
 -13.836  0.242E-01  0.838E-02  0.791E-02  0.791E-02
 -13.736  0.235E-01  0.912E-02  0.718E-02  0.718E-02
 -13.636  0.226E-01  0.963E-02  0.646E-02  0.646E-02
 -13.536  0.215E-01  0.964E-02  0.592E-02  0.592E-02
 -13.436  0.200E-01  0.905E-02  0.545E-02  0.546E-02
 -13.336  0.175E-01  0.784E-02  0.481E-02  0.482E-02
 -13.236  0.138E-01  0.611E-02  0.385E-02  0.386E-02
 -13.136  0.951E-02  0.414E-02  0.268E-02  0.268E-02
 -13.036  0.552E-02  0.236E-02  0.158E-02  0.158E-02
 -12.936  0.264E-02  0.111E-02  0.768E-03  0.768E-03
 -12.836  0.103E-02  0.419E-03  0.305E-03  0.305E-03
 -12.736  0.324E-03  0.127E-03  0.983E-04  0.983E-04
 -12.636  0.816E-04  0.306E-04  0.255E-04  0.255E-04
 -12.536  0.164E-04  0.582E-05  0.531E-05  0.531E-05
 -12.436  0.264E-05  0.868E-06  0.884E-06  0.884E-06
 -12.336  0.336E-06  0.101E-06  0.118E-06  0.118E-06
 -12.236  0.341E-07  0.918E-08  0.124E-07  0.124E-07
 -12.136  0.273E-08  0.647E-09  0.104E-08  0.104E-08
 -12.036  0.173E-09  0.353E-10  0.691E-10  0.691E-10
 -11.936  0.867E-11  0.149E-11  0.359E-11  0.359E-11
 -11.836  0.340E-12  0.483E-13  0.146E-12  0.146E-12
 -11.736  0.101E-13  0.110E-14  0.450E-14  0.450E-14
 -11.636  0.192E-15  0.223E-17  0.951E-16  0.951E-16
 -11.536  0.000E+00  0.000E+00  0.000E+00  0.000E+00
 -11.436  0.000E+00  0.000E+00  0.000E+00  0.000E+00
 -11.336  0.000E+00  0.000E+00  0.000E+00  0.000E+00
 -11.236  0.000E+00  0.000E+00  0.000E+00  0.000E+00
 -11.136  0.000E+00  0.000E+00  0.000E+00  0.000E+00
 -11.036  0.000E+00  0.000E+00  0.000E+00  0.000E+00
 -10.936  0.000E+00  0.000E+00  0.000E+00  0.000E+00
 -10.836  0.000E+00  0.000E+00  0.000E+00  0.000E+00
 -10.736  0.000E+00  0.000E+00  0.000E+00  0.000E+00
 -10.636  0.000E+00  0.000E+00  0.000E+00  0.000E+00
 -10.536  0.000E+00  0.000E+00  0.000E+00  0.000E+00
 -10.436  0.000E+00  0.000E+00  0.000E+00  0.000E+00
 -10.336  0.000E+00  0.000E+00  0.000E+00  0.000E+00
 -10.236  0.000E+00  0.000E+00  0.000E+00  0.000E+00
 -10.136  0.000E+00  0.000E+00  0.000E+00  0.000E+00
 -10.036  0.000E+00  0.000E+00  0.000E+00  0.000E+00
  -9.936  0.000E+00  0.000E+00  0.000E+00  0.000E+00
  -9.836  0.000E+00  0.000E+00  0.000E+00  0.000E+00
  -9.736  0.000E+00  0.000E+00  0.000E+00  0.000E+00
  -9.636  0.000E+00  0.000E+00  0.000E+00  0.000E+00
  -9.536  0.000E+00  0.000E+00  0.000E+00  0.000E+00
  -9.436  0.000E+00  0.000E+00  0.000E+00  0.000E+00
  -9.336  0.000E+00  0.000E+00  0.000E+00  0.000E+00
  -9.236  0.000E+00  0.000E+00  0.000E+00  0.000E+00
  -9.136  0.000E+00  0.000E+00  0.000E+00  0.000E+00
  -9.036  0.000E+00  0.000E+00  0.000E+00  0.000E+00
  -8.936  0.000E+00  0.000E+00  0.000E+00  0.000E+00
  -8.836  0.000E+00  0.000E+00  0.000E+00  0.000E+00
  -8.736  0.890E-13  0.414E-15  0.443E-13  0.443E-13
  -8.636  0.412E-11  0.172E-13  0.205E-11  0.205E-11
  -8.536  0.127E-09  0.516E-12  0.633E-10  0.632E-10
  -8.436  0.301E-08  0.119E-10  0.150E-08  0.150E-08
  -8.336  0.546E-07  0.210E-09  0.272E-07  0.272E-07
  -8.236  0.762E-06  0.286E-08  0.380E-06  0.380E-06
  -8.136  0.819E-05  0.301E-07  0.408E-05  0.408E-05
  -8.036  0.677E-04  0.250E-06  0.337E-04  0.337E-04
  -7.936  0.432E-03  0.167E-05  0.215E-03  0.215E-03
  -7.836  0.213E-02  0.937E-05  0.106E-02  0.106E-02
  -7.736  0.815E-02  0.471E-04  0.405E-02  0.405E-02
  -7.636  0.244E-01  0.221E-03  0.121E-01  0.121E-01
  -7.536  0.577E-01  0.948E-03  0.284E-01  0.284E-01
  -7.436  0.111E+00  0.357E-02  0.535E-01  0.535E-01
  -7.336  0.178E+00  0.113E-01  0.832E-01  0.833E-01
  -7.236  0.253E+00  0.293E-01  0.112E+00  0.112E+00
  -7.136  0.336E+00  0.625E-01  0.137E+00  0.137E+00
  -7.036  0.431E+00  0.110E+00  0.161E+00  0.161E+00
  -6.936  0.542E+00  0.164E+00  0.189E+00  0.189E+00
  -6.836  0.668E+00  0.214E+00  0.227E+00  0.227E+00
  -6.736  0.809E+00  0.255E+00  0.277E+00  0.277E+00
  -6.636  0.947E+00  0.285E+00  0.331E+00  0.331E+00
  -6.536  0.103E+01  0.300E+00  0.365E+00  0.365E+00
  -6.436  0.101E+01  0.288E+00  0.360E+00  0.360E+00
  -6.336  0.878E+00  0.249E+00  0.315E+00  0.315E+00
  -6.236  0.703E+00  0.194E+00  0.255E+00  0.255E+00
  -6.136  0.554E+00  0.144E+00  0.205E+00  0.205E+00
  -6.036  0.458E+00  0.112E+00  0.173E+00  0.173E+00
  -5.936  0.398E+00  0.947E-01  0.152E+00  0.152E+00
  -5.836  0.356E+00  0.901E-01  0.133E+00  0.133E+00
  -5.736  0.334E+00  0.103E+00  0.116E+00  0.116E+00
  -5.636  0.352E+00  0.142E+00  0.105E+00  0.105E+00
  -5.536  0.425E+00  0.209E+00  0.108E+00  0.108E+00
  -5.436  0.542E+00  0.287E+00  0.128E+00  0.128E+00
  -5.336  0.663E+00  0.345E+00  0.159E+00  0.159E+00
  -5.236  0.740E+00  0.361E+00  0.189E+00  0.189E+00
  -5.136  0.750E+00  0.334E+00  0.208E+00  0.208E+00
  -5.036  0.717E+00  0.290E+00  0.214E+00  0.214E+00
  -4.936  0.691E+00  0.258E+00  0.216E+00  0.216E+00
  -4.836  0.710E+00  0.252E+00  0.229E+00  0.229E+00
  -4.736  0.777E+00  0.265E+00  0.256E+00  0.256E+00
  -4.636  0.856E+00  0.282E+00  0.287E+00  0.287E+00
  -4.536  0.896E+00  0.288E+00  0.304E+00  0.304E+00
  -4.436  0.865E+00  0.276E+00  0.294E+00  0.294E+00
  -4.336  0.774E+00  0.250E+00  0.262E+00  0.262E+00
  -4.236  0.671E+00  0.217E+00  0.227E+00  0.227E+00
  -4.136  0.592E+00  0.188E+00  0.202E+00  0.202E+00
  -4.036  0.541E+00  0.168E+00  0.186E+00  0.186E+00
  -3.936  0.499E+00  0.153E+00  0.173E+00  0.173E+00
  -3.836  0.459E+00  0.140E+00  0.159E+00  0.159E+00
  -3.736  0.433E+00  0.134E+00  0.150E+00  0.150E+00
  -3.636  0.434E+00  0.138E+00  0.148E+00  0.148E+00
  -3.536  0.461E+00  0.156E+00  0.153E+00  0.153E+00
  -3.436  0.516E+00  0.196E+00  0.160E+00  0.160E+00
  -3.336  0.611E+00  0.264E+00  0.173E+00  0.173E+00
  -3.236  0.750E+00  0.355E+00  0.198E+00  0.198E+00
  -3.136  0.910E+00  0.438E+00  0.236E+00  0.236E+00
  -3.036  0.104E+01  0.480E+00  0.281E+00  0.281E+00
  -2.936  0.111E+01  0.467E+00  0.321E+00  0.321E+00
  -2.836  0.110E+01  0.411E+00  0.344E+00  0.344E+00
  -2.736  0.102E+01  0.337E+00  0.343E+00  0.343E+00
  -2.636  0.902E+00  0.268E+00  0.317E+00  0.317E+00
  -2.536  0.761E+00  0.216E+00  0.272E+00  0.272E+00
  -2.436  0.625E+00  0.189E+00  0.218E+00  0.218E+00
  -2.336  0.516E+00  0.182E+00  0.167E+00  0.167E+00
  -2.236  0.442E+00  0.184E+00  0.129E+00  0.129E+00
  -2.136  0.396E+00  0.182E+00  0.107E+00  0.107E+00
  -2.036  0.364E+00  0.167E+00  0.985E-01  0.985E-01
  -1.936  0.339E+00  0.144E+00  0.977E-01  0.977E-01
  -1.836  0.316E+00  0.119E+00  0.984E-01  0.984E-01
  -1.736  0.290E+00  0.956E-01  0.970E-01  0.970E-01
  -1.636  0.261E+00  0.750E-01  0.932E-01  0.931E-01
  -1.536  0.236E+00  0.583E-01  0.889E-01  0.889E-01
  -1.436  0.216E+00  0.471E-01  0.847E-01  0.847E-01
  -1.336  0.196E+00  0.408E-01  0.776E-01  0.776E-01
  -1.236  0.164E+00  0.357E-01  0.643E-01  0.642E-01
  -1.136  0.119E+00  0.286E-01  0.454E-01  0.454E-01
  -1.036  0.722E-01  0.195E-01  0.264E-01  0.263E-01
  -0.936  0.354E-01  0.109E-01  0.123E-01  0.123E-01
  -0.836  0.139E-01  0.486E-02  0.452E-02  0.452E-02
  -0.736  0.433E-02  0.172E-02  0.131E-02  0.131E-02
  -0.636  0.107E-02  0.476E-03  0.297E-03  0.297E-03
  -0.536  0.217E-03  0.106E-03  0.554E-04  0.554E-04
  -0.436  0.930E-04  0.404E-04  0.263E-04  0.263E-04
  -0.336  0.328E-03  0.136E-03  0.964E-04  0.963E-04
  -0.236  0.134E-02  0.602E-03  0.369E-03  0.368E-03
  -0.136  0.431E-02  0.212E-02  0.109E-02  0.109E-02
  -0.036  0.108E-01  0.584E-02  0.249E-02  0.249E-02
   0.064  0.214E-01  0.126E-01  0.439E-02  0.439E-02
   0.164  0.331E-01  0.212E-01  0.597E-02  0.597E-02
   0.264  0.405E-01  0.279E-01  0.630E-02  0.631E-02
   0.364  0.394E-01  0.288E-01  0.533E-02  0.533E-02
   0.464  0.326E-01  0.238E-01  0.439E-02  0.439E-02
   0.564  0.314E-01  0.184E-01  0.651E-02  0.651E-02
   0.664  0.548E-01  0.204E-01  0.172E-01  0.172E-01
   0.764  0.125E+00  0.367E-01  0.442E-01  0.442E-01
   0.864  0.255E+00  0.695E-01  0.926E-01  0.926E-01
   0.964  0.422E+00  0.112E+00  0.155E+00  0.155E+00
   1.064  0.568E+00  0.151E+00  0.208E+00  0.208E+00
   1.164  0.633E+00  0.173E+00  0.230E+00  0.230E+00
   1.264  0.604E+00  0.171E+00  0.216E+00  0.216E+00
   1.364  0.531E+00  0.153E+00  0.189E+00  0.189E+00
   1.464  0.488E+00  0.132E+00  0.178E+00  0.178E+00
   1.564  0.520E+00  0.123E+00  0.198E+00  0.198E+00
   1.664  0.622E+00  0.133E+00  0.245E+00  0.245E+00
   1.764  0.742E+00  0.158E+00  0.292E+00  0.292E+00
   1.864  0.807E+00  0.185E+00  0.311E+00  0.311E+00
   1.964  0.779E+00  0.201E+00  0.289E+00  0.289E+00
   2.064  0.667E+00  0.196E+00  0.236E+00  0.236E+00
   2.164  0.512E+00  0.169E+00  0.172E+00  0.172E+00
   2.264  0.356E+00  0.128E+00  0.114E+00  0.114E+00
   2.364  0.223E+00  0.833E-01  0.698E-01  0.698E-01
   2.464  0.123E+00  0.463E-01  0.383E-01  0.384E-01
   2.564  0.587E-01  0.217E-01  0.184E-01  0.185E-01
   2.664  0.238E-01  0.856E-02  0.755E-02  0.768E-02
   2.764  0.813E-02  0.282E-02  0.261E-02  0.271E-02
   2.864  0.234E-02  0.774E-03  0.754E-03  0.812E-03
   2.964  0.566E-03  0.177E-03  0.182E-03  0.207E-03
   3.064  0.115E-03  0.338E-04  0.365E-04  0.448E-04
   3.164  0.195E-04  0.536E-05  0.602E-05  0.809E-05
   3.264  0.271E-05  0.702E-06  0.810E-06  0.120E-05
   3.364  0.306E-06  0.751E-07  0.872E-07  0.144E-06
   3.464  0.276E-07  0.647E-08  0.744E-08  0.136E-07
