# E (eV)   ldos(E)   pdos(E)    pdos(E)    pdos(E)   
 -16.436  0.936E-07  0.227E-07  0.392E-07  0.317E-07
 -16.336  0.905E-06  0.202E-06  0.389E-06  0.313E-06
 -16.236  0.683E-05  0.140E-05  0.301E-05  0.242E-05
 -16.136  0.406E-04  0.751E-05  0.184E-04  0.147E-04
 -16.036  0.191E-03  0.315E-04  0.887E-04  0.704E-04
 -15.936  0.714E-03  0.104E-03  0.341E-03  0.269E-03
 -15.836  0.216E-02  0.276E-03  0.106E-02  0.823E-03
 -15.736  0.534E-02  0.602E-03  0.269E-02  0.205E-02
 -15.636  0.110E-01  0.114E-02  0.565E-02  0.425E-02
 -15.536  0.196E-01  0.200E-02  0.101E-01  0.753E-02
 -15.436  0.311E-01  0.349E-02  0.157E-01  0.119E-01
 -15.336  0.454E-01  0.594E-02  0.221E-01  0.174E-01
 -15.236  0.623E-01  0.922E-02  0.288E-01  0.243E-01
 -15.136  0.807E-01  0.124E-01  0.356E-01  0.327E-01
 -15.036  0.982E-01  0.141E-01  0.421E-01  0.420E-01
 -14.936  0.113E+00  0.140E-01  0.480E-01  0.515E-01
 -14.836  0.127E+00  0.140E-01  0.530E-01  0.603E-01
 -14.736  0.143E+00  0.182E-01  0.572E-01  0.679E-01
 -14.636  0.168E+00  0.323E-01  0.612E-01  0.744E-01
 -14.536  0.206E+00  0.603E-01  0.658E-01  0.802E-01
 -14.436  0.257E+00  0.999E-01  0.713E-01  0.856E-01
 -14.336  0.308E+00  0.140E+00  0.772E-01  0.902E-01
 -14.236  0.345E+00  0.169E+00  0.823E-01  0.930E-01
 -14.136  0.363E+00  0.182E+00  0.870E-01  0.942E-01
 -14.036  0.371E+00  0.182E+00  0.931E-01  0.957E-01
 -13.936  0.380E+00  0.178E+00  0.103E+00  0.996E-01
 -13.836  0.395E+00  0.173E+00  0.116E+00  0.106E+00
 -13.736  0.412E+00  0.167E+00  0.130E+00  0.115E+00
 -13.636  0.419E+00  0.160E+00  0.138E+00  0.121E+00
 -13.536  0.403E+00  0.150E+00  0.133E+00  0.120E+00
 -13.436  0.356E+00  0.135E+00  0.114E+00  0.107E+00
 -13.336  0.283E+00  0.113E+00  0.854E-01  0.847E-01
 -13.236  0.202E+00  0.883E-01  0.557E-01  0.579E-01
 -13.136  0.129E+00  0.636E-01  0.313E-01  0.339E-01
 -13.036  0.728E-01  0.409E-01  0.151E-01  0.168E-01
 -12.936  0.360E-01  0.226E-01  0.623E-02  0.714E-02
 -12.836  0.152E-01  0.104E-01  0.221E-02  0.262E-02
 -12.736  0.536E-02  0.384E-02  0.677E-03  0.839E-03
 -12.636  0.154E-02  0.113E-02  0.178E-03  0.234E-03
 -12.536  0.357E-03  0.262E-03  0.392E-04  0.557E-04
 -12.436  0.657E-04  0.476E-04  0.714E-05  0.110E-04
 -12.336  0.953E-05  0.673E-05  0.105E-05  0.175E-05
 -12.236  0.109E-05  0.740E-06  0.123E-06  0.222E-06
 -12.136  0.967E-07  0.633E-07  0.114E-07  0.220E-07
 -12.036  0.673E-08  0.420E-08  0.823E-09  0.170E-08
 -11.936  0.365E-09  0.217E-09  0.465E-10  0.102E-09
 -11.836  0.154E-10  0.866E-11  0.204E-11  0.470E-11
 -11.736  0.504E-12  0.267E-12  0.695E-13  0.167E-12
 -11.636  0.101E-13  0.418E-14  0.156E-14  0.441E-14
 -11.536  0.000E+00  0.000E+00  0.000E+00  0.000E+00
 -11.436  0.000E+00  0.000E+00  0.000E+00  0.000E+00
 -11.336  0.000E+00  0.000E+00  0.000E+00  0.000E+00
 -11.236  0.000E+00  0.000E+00  0.000E+00  0.000E+00
 -11.136  0.000E+00  0.000E+00  0.000E+00  0.000E+00
 -11.036  0.000E+00  0.000E+00  0.000E+00  0.000E+00
 -10.936  0.000E+00  0.000E+00  0.000E+00  0.000E+00
 -10.836  0.000E+00  0.000E+00  0.000E+00  0.000E+00
 -10.736  0.000E+00  0.000E+00  0.000E+00  0.000E+00
 -10.636  0.000E+00  0.000E+00  0.000E+00  0.000E+00
 -10.536  0.000E+00  0.000E+00  0.000E+00  0.000E+00
 -10.436  0.000E+00  0.000E+00  0.000E+00  0.000E+00
 -10.336  0.000E+00  0.000E+00  0.000E+00  0.000E+00
 -10.236  0.000E+00  0.000E+00  0.000E+00  0.000E+00
 -10.136  0.000E+00  0.000E+00  0.000E+00  0.000E+00
 -10.036  0.000E+00  0.000E+00  0.000E+00  0.000E+00
  -9.936  0.000E+00  0.000E+00  0.000E+00  0.000E+00
  -9.836  0.000E+00  0.000E+00  0.000E+00  0.000E+00
  -9.736  0.000E+00  0.000E+00  0.000E+00  0.000E+00
  -9.636  0.000E+00  0.000E+00  0.000E+00  0.000E+00
  -9.536  0.000E+00  0.000E+00  0.000E+00  0.000E+00
  -9.436  0.000E+00  0.000E+00  0.000E+00  0.000E+00
  -9.336  0.000E+00  0.000E+00  0.000E+00  0.000E+00
  -9.236  0.000E+00  0.000E+00  0.000E+00  0.000E+00
  -9.136  0.000E+00  0.000E+00  0.000E+00  0.000E+00
  -9.036  0.000E+00  0.000E+00  0.000E+00  0.000E+00
  -8.936  0.000E+00  0.000E+00  0.000E+00  0.000E+00
  -8.836  0.000E+00  0.000E+00  0.000E+00  0.000E+00
  -8.736  0.225E-13  0.488E-15  0.101E-13  0.120E-13
  -8.636  0.104E-11  0.216E-13  0.462E-12  0.556E-12
  -8.536  0.320E-10  0.659E-12  0.142E-10  0.171E-10
  -8.436  0.757E-09  0.154E-10  0.336E-09  0.406E-09
  -8.336  0.137E-07  0.278E-09  0.609E-08  0.737E-08
  -8.236  0.192E-06  0.384E-08  0.849E-07  0.103E-06
  -8.136  0.205E-05  0.409E-07  0.909E-06  0.110E-05
  -8.036  0.169E-04  0.337E-06  0.749E-05  0.912E-05
  -7.936  0.108E-03  0.215E-05  0.476E-04  0.580E-04
  -7.836  0.530E-03  0.108E-04  0.234E-03  0.285E-03
  -7.736  0.202E-02  0.431E-04  0.890E-03  0.108E-02
  -7.636  0.599E-02  0.142E-03  0.264E-02  0.321E-02
  -7.536  0.140E-01  0.407E-03  0.618E-02  0.744E-02
  -7.436  0.263E-01  0.106E-02  0.116E-01  0.137E-01
  -7.336  0.409E-01  0.254E-02  0.178E-01  0.205E-01
  -7.236  0.548E-01  0.552E-02  0.235E-01  0.259E-01
  -7.136  0.671E-01  0.105E-01  0.278E-01  0.289E-01
  -7.036  0.781E-01  0.169E-01  0.308E-01  0.303E-01
  -6.936  0.872E-01  0.234E-01  0.328E-01  0.310E-01
  -6.836  0.927E-01  0.284E-01  0.333E-01  0.310E-01
  -6.736  0.933E-01  0.314E-01  0.320E-01  0.298E-01
  -6.636  0.891E-01  0.328E-01  0.290E-01  0.272E-01
  -6.536  0.817E-01  0.327E-01  0.252E-01  0.239E-01
  -6.436  0.734E-01  0.316E-01  0.212E-01  0.206E-01
  -6.336  0.656E-01  0.306E-01  0.175E-01  0.175E-01
  -6.236  0.593E-01  0.312E-01  0.140E-01  0.141E-01
  -6.136  0.557E-01  0.343E-01  0.109E-01  0.106E-01
  -6.036  0.554E-01  0.395E-01  0.834E-02  0.754E-02
  -5.936  0.566E-01  0.445E-01  0.665E-02  0.549E-02
  -5.836  0.566E-01  0.456E-01  0.608E-02  0.488E-02
  -5.736  0.550E-01  0.415E-01  0.734E-02  0.620E-02
  -5.636  0.563E-01  0.347E-01  0.115E-01  0.102E-01
  -5.536  0.659E-01  0.297E-01  0.189E-01  0.172E-01
  -5.436  0.841E-01  0.290E-01  0.285E-01  0.266E-01
  -5.336  0.104E+00  0.310E-01  0.371E-01  0.357E-01
  -5.236  0.116E+00  0.326E-01  0.417E-01  0.413E-01
  -5.136  0.116E+00  0.329E-01  0.410E-01  0.416E-01
  -5.036  0.107E+00  0.331E-01  0.360E-01  0.375E-01
  -4.936  0.954E-01  0.351E-01  0.290E-01  0.313E-01
  -4.836  0.875E-01  0.400E-01  0.224E-01  0.250E-01
  -4.736  0.843E-01  0.468E-01  0.177E-01  0.199E-01
  -4.636  0.839E-01  0.523E-01  0.151E-01  0.165E-01
  -4.536  0.825E-01  0.535E-01  0.143E-01  0.147E-01
  -4.436  0.781E-01  0.495E-01  0.144E-01  0.142E-01
  -4.336  0.709E-01  0.420E-01  0.147E-01  0.142E-01
  -4.236  0.631E-01  0.335E-01  0.151E-01  0.145E-01
  -4.136  0.560E-01  0.261E-01  0.153E-01  0.147E-01
  -4.036  0.499E-01  0.202E-01  0.151E-01  0.146E-01
  -3.936  0.447E-01  0.158E-01  0.146E-01  0.143E-01
  -3.836  0.411E-01  0.127E-01  0.142E-01  0.142E-01
  -3.736  0.399E-01  0.107E-01  0.145E-01  0.147E-01
  -3.636  0.409E-01  0.101E-01  0.152E-01  0.157E-01
  -3.536  0.436E-01  0.107E-01  0.161E-01  0.169E-01
  -3.436  0.479E-01  0.125E-01  0.171E-01  0.183E-01
  -3.336  0.539E-01  0.153E-01  0.185E-01  0.201E-01
  -3.236  0.607E-01  0.188E-01  0.200E-01  0.218E-01
  -3.136  0.662E-01  0.219E-01  0.213E-01  0.230E-01
  -3.036  0.689E-01  0.236E-01  0.221E-01  0.232E-01
  -2.936  0.691E-01  0.237E-01  0.226E-01  0.228E-01
  -2.836  0.683E-01  0.229E-01  0.232E-01  0.222E-01
  -2.736  0.678E-01  0.221E-01  0.240E-01  0.218E-01
  -2.636  0.675E-01  0.213E-01  0.247E-01  0.215E-01
  -2.536  0.667E-01  0.203E-01  0.249E-01  0.214E-01
  -2.436  0.656E-01  0.194E-01  0.248E-01  0.214E-01
  -2.336  0.648E-01  0.185E-01  0.247E-01  0.217E-01
  -2.236  0.649E-01  0.176E-01  0.247E-01  0.225E-01
  -2.136  0.655E-01  0.166E-01  0.250E-01  0.239E-01
  -2.036  0.655E-01  0.153E-01  0.251E-01  0.251E-01
  -1.936  0.637E-01  0.138E-01  0.245E-01  0.254E-01
  -1.836  0.591E-01  0.122E-01  0.230E-01  0.239E-01
  -1.736  0.525E-01  0.107E-01  0.210E-01  0.208E-01
  -1.636  0.455E-01  0.968E-02  0.189E-01  0.169E-01
  -1.536  0.392E-01  0.929E-02  0.167E-01  0.132E-01
  -1.436  0.334E-01  0.946E-02  0.139E-01  0.100E-01
  -1.336  0.273E-01  0.957E-02  0.106E-01  0.714E-02
  -1.236  0.206E-01  0.879E-02  0.715E-02  0.464E-02
  -1.136  0.137E-01  0.683E-02  0.421E-02  0.266E-02
  -1.036  0.779E-02  0.432E-02  0.215E-02  0.132E-02
  -0.936  0.369E-02  0.218E-02  0.951E-03  0.555E-03
  -0.836  0.143E-02  0.873E-03  0.358E-03  0.196E-03
  -0.736  0.445E-03  0.275E-03  0.112E-03  0.576E-04
  -0.636  0.111E-03  0.684E-04  0.288E-04  0.139E-04
  -0.536  0.244E-04  0.146E-04  0.635E-05  0.341E-05
  -0.436  0.197E-04  0.104E-04  0.384E-05  0.539E-05
  -0.336  0.831E-04  0.421E-04  0.151E-04  0.259E-04
  -0.236  0.324E-03  0.160E-03  0.603E-04  0.104E-03
  -0.136  0.980E-03  0.469E-03  0.188E-03  0.322E-03
  -0.036  0.229E-02  0.106E-02  0.453E-03  0.778E-03
   0.064  0.416E-02  0.185E-02  0.850E-03  0.146E-02
   0.164  0.588E-02  0.250E-02  0.124E-02  0.214E-02
   0.264  0.649E-02  0.262E-02  0.142E-02  0.246E-02
   0.364  0.563E-02  0.213E-02  0.128E-02  0.223E-02
   0.464  0.396E-02  0.138E-02  0.955E-03  0.163E-02
   0.564  0.268E-02  0.773E-03  0.783E-03  0.113E-02
   0.664  0.301E-02  0.621E-03  0.117E-02  0.122E-02
   0.764  0.591E-02  0.109E-02  0.253E-02  0.229E-02
   0.864  0.118E-01  0.226E-02  0.500E-02  0.449E-02
   0.964  0.196E-01  0.396E-02  0.816E-02  0.749E-02
   1.064  0.270E-01  0.564E-02  0.110E-01  0.104E-01
   1.164  0.315E-01  0.666E-02  0.125E-01  0.123E-01
   1.264  0.322E-01  0.678E-02  0.126E-01  0.128E-01
   1.364  0.303E-01  0.632E-02  0.118E-01  0.121E-01
   1.464  0.273E-01  0.584E-02  0.108E-01  0.106E-01
   1.564  0.246E-01  0.571E-02  0.994E-02  0.896E-02
   1.664  0.229E-01  0.600E-02  0.926E-02  0.762E-02
   1.764  0.225E-01  0.653E-02  0.895E-02  0.696E-02
   1.864  0.235E-01  0.713E-02  0.920E-02  0.712E-02
   1.964  0.254E-01  0.764E-02  0.993E-02  0.785E-02
   2.064  0.271E-01  0.794E-02  0.106E-01  0.857E-02
   2.164  0.270E-01  0.780E-02  0.106E-01  0.857E-02
   2.264  0.238E-01  0.696E-02  0.932E-02  0.750E-02
   2.364  0.180E-01  0.542E-02  0.695E-02  0.557E-02
   2.464  0.113E-01  0.356E-02  0.430E-02  0.345E-02
   2.564  0.586E-02  0.193E-02  0.217E-02  0.176E-02
   2.664  0.246E-02  0.843E-03  0.881E-03  0.731E-03
   2.764  0.828E-03  0.296E-03  0.286E-03  0.246E-03
   2.864  0.224E-03  0.834E-04  0.737E-04  0.667E-04
   2.964  0.487E-04  0.188E-04  0.151E-04  0.147E-04
   3.064  0.857E-05  0.343E-05  0.247E-05  0.268E-05
   3.164  0.123E-05  0.508E-06  0.323E-06  0.404E-06
   3.264  0.147E-06  0.615E-07  0.343E-07  0.512E-07
   3.364  0.145E-07  0.611E-08  0.300E-08  0.542E-08
   3.464  0.119E-08  0.495E-09  0.218E-09  0.474E-09
