# E (eV)   ldos(E)   pdos(E)    pdos(E)    pdos(E)   
 -16.436  0.911E-07  0.113E-07  0.452E-07  0.345E-07
 -16.336  0.890E-06  0.101E-06  0.451E-06  0.339E-06
 -16.236  0.680E-05  0.691E-06  0.351E-05  0.260E-05
 -16.136  0.409E-04  0.369E-05  0.216E-04  0.157E-04
 -16.036  0.195E-03  0.154E-04  0.105E-03  0.746E-04
 -15.936  0.743E-03  0.508E-04  0.409E-03  0.283E-03
 -15.836  0.229E-02  0.136E-03  0.129E-02  0.864E-03
 -15.736  0.578E-02  0.316E-03  0.332E-02  0.215E-02
 -15.636  0.122E-01  0.699E-03  0.707E-02  0.445E-02
 -15.536  0.221E-01  0.159E-02  0.127E-01  0.784E-02
 -15.436  0.352E-01  0.357E-02  0.194E-01  0.122E-01
 -15.336  0.506E-01  0.722E-02  0.261E-01  0.173E-01
 -15.236  0.673E-01  0.122E-01  0.317E-01  0.234E-01
 -15.136  0.835E-01  0.168E-01  0.364E-01  0.303E-01
 -15.036  0.972E-01  0.189E-01  0.408E-01  0.375E-01
 -14.936  0.108E+00  0.179E-01  0.455E-01  0.446E-01
 -14.836  0.117E+00  0.160E-01  0.507E-01  0.507E-01
 -14.736  0.129E+00  0.176E-01  0.555E-01  0.559E-01
 -14.636  0.148E+00  0.277E-01  0.592E-01  0.608E-01
 -14.536  0.176E+00  0.491E-01  0.610E-01  0.663E-01
 -14.436  0.214E+00  0.792E-01  0.618E-01  0.727E-01
 -14.336  0.253E+00  0.111E+00  0.636E-01  0.791E-01
 -14.236  0.289E+00  0.136E+00  0.685E-01  0.844E-01
 -14.136  0.324E+00  0.158E+00  0.774E-01  0.893E-01
 -14.036  0.364E+00  0.178E+00  0.893E-01  0.965E-01
 -13.936  0.409E+00  0.197E+00  0.103E+00  0.109E+00
 -13.836  0.454E+00  0.208E+00  0.119E+00  0.127E+00
 -13.736  0.489E+00  0.209E+00  0.134E+00  0.145E+00
 -13.636  0.501E+00  0.201E+00  0.144E+00  0.156E+00
 -13.536  0.476E+00  0.185E+00  0.141E+00  0.149E+00
 -13.436  0.410E+00  0.162E+00  0.125E+00  0.123E+00
 -13.336  0.315E+00  0.130E+00  0.966E-01  0.877E-01
 -13.236  0.214E+00  0.950E-01  0.651E-01  0.535E-01
 -13.136  0.127E+00  0.611E-01  0.377E-01  0.280E-01
 -13.036  0.650E-01  0.339E-01  0.187E-01  0.125E-01
 -12.936  0.285E-01  0.159E-01  0.793E-02  0.471E-02
 -12.836  0.106E-01  0.618E-02  0.291E-02  0.151E-02
 -12.736  0.332E-02  0.197E-02  0.930E-03  0.414E-03
 -12.636  0.869E-03  0.514E-03  0.259E-03  0.961E-04
 -12.536  0.189E-03  0.108E-03  0.617E-04  0.188E-04
 -12.436  0.335E-04  0.183E-04  0.122E-04  0.302E-05
 -12.336  0.483E-05  0.248E-05  0.196E-05  0.393E-06
 -12.236  0.558E-06  0.268E-06  0.250E-06  0.405E-07
 -12.136  0.511E-07  0.229E-07  0.250E-07  0.326E-08
 -12.036  0.369E-08  0.154E-08  0.194E-08  0.204E-09
 -11.936  0.208E-09  0.815E-10  0.117E-09  0.990E-11
 -11.836  0.914E-11  0.337E-11  0.540E-11  0.368E-12
 -11.736  0.309E-12  0.107E-12  0.192E-12  0.105E-13
 -11.636  0.752E-14  0.231E-14  0.517E-14  0.377E-16
 -11.536  0.000E+00  0.000E+00  0.000E+00  0.000E+00
 -11.436  0.000E+00  0.000E+00  0.000E+00  0.000E+00
 -11.336  0.000E+00  0.000E+00  0.000E+00  0.000E+00
 -11.236  0.000E+00  0.000E+00  0.000E+00  0.000E+00
 -11.136  0.000E+00  0.000E+00  0.000E+00  0.000E+00
 -11.036  0.000E+00  0.000E+00  0.000E+00  0.000E+00
 -10.936  0.000E+00  0.000E+00  0.000E+00  0.000E+00
 -10.836  0.000E+00  0.000E+00  0.000E+00  0.000E+00
 -10.736  0.000E+00  0.000E+00  0.000E+00  0.000E+00
 -10.636  0.000E+00  0.000E+00  0.000E+00  0.000E+00
 -10.536  0.000E+00  0.000E+00  0.000E+00  0.000E+00
 -10.436  0.000E+00  0.000E+00  0.000E+00  0.000E+00
 -10.336  0.000E+00  0.000E+00  0.000E+00  0.000E+00
 -10.236  0.000E+00  0.000E+00  0.000E+00  0.000E+00
 -10.136  0.000E+00  0.000E+00  0.000E+00  0.000E+00
 -10.036  0.000E+00  0.000E+00  0.000E+00  0.000E+00
  -9.936  0.000E+00  0.000E+00  0.000E+00  0.000E+00
  -9.836  0.000E+00  0.000E+00  0.000E+00  0.000E+00
  -9.736  0.000E+00  0.000E+00  0.000E+00  0.000E+00
  -9.636  0.000E+00  0.000E+00  0.000E+00  0.000E+00
  -9.536  0.000E+00  0.000E+00  0.000E+00  0.000E+00
  -9.436  0.000E+00  0.000E+00  0.000E+00  0.000E+00
  -9.336  0.000E+00  0.000E+00  0.000E+00  0.000E+00
  -9.236  0.000E+00  0.000E+00  0.000E+00  0.000E+00
  -9.136  0.000E+00  0.000E+00  0.000E+00  0.000E+00
  -9.036  0.000E+00  0.000E+00  0.000E+00  0.000E+00
  -8.936  0.000E+00  0.000E+00  0.000E+00  0.000E+00
  -8.836  0.000E+00  0.000E+00  0.000E+00  0.000E+00
  -8.736  0.154E-13  0.147E-14  0.850E-14  0.545E-14
  -8.636  0.679E-12  0.632E-13  0.381E-12  0.235E-12
  -8.536  0.207E-10  0.191E-11  0.117E-10  0.715E-11
  -8.436  0.486E-09  0.443E-10  0.274E-09  0.167E-09
  -8.336  0.873E-08  0.789E-09  0.495E-08  0.298E-08
  -8.236  0.120E-06  0.108E-07  0.686E-07  0.410E-07
  -8.136  0.128E-05  0.114E-06  0.731E-06  0.434E-06
  -8.036  0.105E-04  0.923E-06  0.600E-05  0.353E-05
  -7.936  0.660E-04  0.579E-05  0.379E-04  0.223E-04
  -7.836  0.323E-03  0.282E-04  0.186E-03  0.109E-03
  -7.736  0.123E-02  0.108E-03  0.705E-03  0.419E-03
  -7.636  0.370E-02  0.325E-03  0.210E-02  0.128E-02
  -7.536  0.891E-02  0.801E-03  0.495E-02  0.316E-02
  -7.436  0.176E-01  0.168E-02  0.947E-02  0.649E-02
  -7.336  0.297E-01  0.318E-02  0.152E-01  0.114E-01
  -7.236  0.446E-01  0.569E-02  0.212E-01  0.177E-01
  -7.136  0.613E-01  0.964E-02  0.271E-01  0.245E-01
  -7.036  0.786E-01  0.151E-01  0.325E-01  0.310E-01
  -6.936  0.942E-01  0.215E-01  0.365E-01  0.362E-01
  -6.836  0.106E+00  0.279E-01  0.384E-01  0.395E-01
  -6.736  0.112E+00  0.337E-01  0.377E-01  0.402E-01
  -6.636  0.110E+00  0.383E-01  0.344E-01  0.377E-01
  -6.536  0.102E+00  0.409E-01  0.292E-01  0.322E-01
  -6.436  0.898E-01  0.416E-01  0.231E-01  0.251E-01
  -6.336  0.765E-01  0.410E-01  0.172E-01  0.182E-01
  -6.236  0.647E-01  0.395E-01  0.123E-01  0.128E-01
  -6.136  0.549E-01  0.367E-01  0.882E-02  0.932E-02
  -6.036  0.465E-01  0.325E-01  0.658E-02  0.737E-02
  -5.936  0.392E-01  0.274E-01  0.530E-02  0.640E-02
  -5.836  0.335E-01  0.225E-01  0.493E-02  0.607E-02
  -5.736  0.311E-01  0.185E-01  0.595E-02  0.667E-02
  -5.636  0.349E-01  0.165E-01  0.932E-02  0.911E-02
  -5.536  0.474E-01  0.172E-01  0.158E-01  0.144E-01
  -5.436  0.679E-01  0.204E-01  0.250E-01  0.225E-01
  -5.336  0.913E-01  0.247E-01  0.347E-01  0.320E-01
  -5.236  0.110E+00  0.287E-01  0.417E-01  0.399E-01
  -5.136  0.120E+00  0.324E-01  0.440E-01  0.434E-01
  -5.036  0.120E+00  0.367E-01  0.413E-01  0.416E-01
  -4.936  0.114E+00  0.430E-01  0.353E-01  0.359E-01
  -4.836  0.108E+00  0.512E-01  0.282E-01  0.291E-01
  -4.736  0.104E+00  0.591E-01  0.218E-01  0.230E-01
  -4.636  0.995E-01  0.635E-01  0.172E-01  0.189E-01
  -4.536  0.932E-01  0.618E-01  0.148E-01  0.166E-01
  -4.436  0.840E-01  0.542E-01  0.143E-01  0.155E-01
  -4.336  0.733E-01  0.433E-01  0.151E-01  0.149E-01
  -4.236  0.638E-01  0.326E-01  0.163E-01  0.149E-01
  -4.136  0.572E-01  0.246E-01  0.170E-01  0.156E-01
  -4.036  0.531E-01  0.193E-01  0.169E-01  0.170E-01
  -3.936  0.506E-01  0.158E-01  0.159E-01  0.189E-01
  -3.836  0.490E-01  0.130E-01  0.146E-01  0.214E-01
  -3.736  0.489E-01  0.107E-01  0.139E-01  0.242E-01
  -3.636  0.503E-01  0.931E-02  0.142E-01  0.268E-01
  -3.536  0.530E-01  0.922E-02  0.153E-01  0.284E-01
  -3.436  0.565E-01  0.107E-01  0.174E-01  0.284E-01
  -3.336  0.609E-01  0.134E-01  0.203E-01  0.272E-01
  -3.236  0.655E-01  0.168E-01  0.234E-01  0.254E-01
  -3.136  0.690E-01  0.199E-01  0.256E-01  0.235E-01
  -3.036  0.699E-01  0.219E-01  0.262E-01  0.218E-01
  -2.936  0.675E-01  0.224E-01  0.249E-01  0.202E-01
  -2.836  0.627E-01  0.213E-01  0.227E-01  0.188E-01
  -2.736  0.573E-01  0.190E-01  0.206E-01  0.176E-01
  -2.636  0.529E-01  0.165E-01  0.195E-01  0.170E-01
  -2.536  0.506E-01  0.145E-01  0.191E-01  0.170E-01
  -2.436  0.507E-01  0.135E-01  0.194E-01  0.178E-01
  -2.336  0.532E-01  0.135E-01  0.204E-01  0.193E-01
  -2.236  0.572E-01  0.138E-01  0.220E-01  0.214E-01
  -2.136  0.613E-01  0.137E-01  0.237E-01  0.239E-01
  -2.036  0.640E-01  0.130E-01  0.246E-01  0.264E-01
  -1.936  0.640E-01  0.120E-01  0.241E-01  0.278E-01
  -1.836  0.604E-01  0.109E-01  0.223E-01  0.272E-01
  -1.736  0.532E-01  0.985E-02  0.196E-01  0.238E-01
  -1.636  0.437E-01  0.878E-02  0.167E-01  0.183E-01
  -1.536  0.341E-01  0.787E-02  0.138E-01  0.124E-01
  -1.436  0.259E-01  0.721E-02  0.110E-01  0.771E-02
  -1.336  0.196E-01  0.665E-02  0.825E-02  0.473E-02
  -1.236  0.145E-01  0.581E-02  0.564E-02  0.303E-02
  -1.136  0.986E-02  0.449E-02  0.337E-02  0.199E-02
  -1.036  0.586E-02  0.292E-02  0.171E-02  0.123E-02
  -0.936  0.291E-02  0.155E-02  0.714E-03  0.650E-03
  -0.836  0.118E-02  0.658E-03  0.241E-03  0.282E-03
  -0.736  0.385E-03  0.222E-03  0.647E-04  0.981E-04
  -0.636  0.100E-03  0.593E-04  0.141E-04  0.269E-04
  -0.536  0.247E-04  0.133E-04  0.516E-05  0.617E-05
  -0.436  0.308E-04  0.835E-05  0.187E-04  0.375E-05
  -0.336  0.136E-03  0.319E-04  0.898E-04  0.146E-04
  -0.236  0.516E-03  0.122E-03  0.337E-03  0.578E-04
  -0.136  0.151E-02  0.360E-03  0.973E-03  0.179E-03
  -0.036  0.342E-02  0.826E-03  0.216E-02  0.433E-03
   0.064  0.599E-02  0.147E-02  0.371E-02  0.815E-03
   0.164  0.815E-02  0.204E-02  0.491E-02  0.120E-02
   0.264  0.865E-02  0.223E-02  0.503E-02  0.139E-02
   0.364  0.721E-02  0.193E-02  0.401E-02  0.127E-02
   0.464  0.480E-02  0.133E-02  0.252E-02  0.951E-03
   0.564  0.285E-02  0.782E-03  0.136E-02  0.712E-03
   0.664  0.236E-02  0.526E-03  0.947E-03  0.885E-03
   0.764  0.383E-02  0.687E-03  0.139E-02  0.176E-02
   0.864  0.731E-02  0.127E-02  0.262E-02  0.343E-02
   0.964  0.121E-01  0.210E-02  0.442E-02  0.559E-02
   1.064  0.168E-01  0.288E-02  0.641E-02  0.755E-02
   1.164  0.202E-01  0.337E-02  0.813E-02  0.870E-02
   1.264  0.219E-01  0.366E-02  0.931E-02  0.895E-02
   1.364  0.228E-01  0.400E-02  0.998E-02  0.881E-02
   1.464  0.238E-01  0.458E-02  0.104E-01  0.878E-02
   1.564  0.252E-01  0.544E-02  0.108E-01  0.895E-02
   1.664  0.272E-01  0.659E-02  0.115E-01  0.912E-02
   1.764  0.296E-01  0.796E-02  0.124E-01  0.924E-02
   1.864  0.318E-01  0.923E-02  0.130E-01  0.960E-02
   1.964  0.335E-01  0.996E-02  0.131E-01  0.105E-01
   2.064  0.339E-01  0.980E-02  0.124E-01  0.117E-01
   2.164  0.320E-01  0.868E-02  0.110E-01  0.123E-01
   2.264  0.271E-01  0.680E-02  0.879E-02  0.115E-01
   2.364  0.199E-01  0.461E-02  0.624E-02  0.906E-02
   2.464  0.123E-01  0.264E-02  0.380E-02  0.582E-02
   2.564  0.619E-02  0.126E-02  0.192E-02  0.301E-02
   2.664  0.253E-02  0.502E-03  0.789E-03  0.123E-02
   2.764  0.828E-03  0.166E-03  0.260E-03  0.402E-03
   2.864  0.217E-03  0.467E-04  0.674E-04  0.103E-03
   2.964  0.461E-04  0.113E-04  0.137E-04  0.211E-04
   3.064  0.795E-05  0.234E-05  0.218E-05  0.344E-05
   3.164  0.114E-05  0.413E-06  0.269E-06  0.454E-06
   3.264  0.136E-06  0.606E-07  0.257E-07  0.494E-07
   3.364  0.136E-07  0.720E-08  0.192E-08  0.450E-08
   3.464  0.114E-08  0.680E-09  0.111E-09  0.345E-09
