# E (eV)   ldos(E)   pdos(E)    pdos(E)    pdos(E)   
 -16.436  0.910E-07  0.113E-07  0.372E-07  0.425E-07
 -16.336  0.889E-06  0.100E-06  0.367E-06  0.423E-06
 -16.236  0.680E-05  0.689E-06  0.283E-05  0.328E-05
 -16.136  0.409E-04  0.368E-05  0.171E-04  0.201E-04
 -16.036  0.195E-03  0.153E-04  0.822E-04  0.975E-04
 -15.936  0.743E-03  0.501E-04  0.315E-03  0.378E-03
 -15.836  0.228E-02  0.132E-03  0.970E-03  0.118E-02
 -15.736  0.576E-02  0.289E-03  0.244E-02  0.302E-02
 -15.636  0.121E-01  0.573E-03  0.510E-02  0.641E-02
 -15.536  0.216E-01  0.113E-02  0.904E-02  0.115E-01
 -15.436  0.339E-01  0.228E-02  0.140E-01  0.176E-01
 -15.336  0.478E-01  0.438E-02  0.195E-01  0.239E-01
 -15.236  0.625E-01  0.736E-02  0.255E-01  0.296E-01
 -15.136  0.769E-01  0.103E-01  0.318E-01  0.349E-01
 -15.036  0.902E-01  0.119E-01  0.384E-01  0.400E-01
 -14.936  0.102E+00  0.118E-01  0.448E-01  0.453E-01
 -14.836  0.113E+00  0.116E-01  0.507E-01  0.507E-01
 -14.736  0.126E+00  0.147E-01  0.558E-01  0.556E-01
 -14.636  0.145E+00  0.254E-01  0.604E-01  0.596E-01
 -14.536  0.174E+00  0.471E-01  0.650E-01  0.623E-01
 -14.436  0.213E+00  0.780E-01  0.700E-01  0.645E-01
 -14.336  0.254E+00  0.112E+00  0.752E-01  0.674E-01
 -14.236  0.294E+00  0.141E+00  0.804E-01  0.725E-01
 -14.136  0.332E+00  0.165E+00  0.863E-01  0.803E-01
 -14.036  0.370E+00  0.184E+00  0.947E-01  0.911E-01
 -13.936  0.410E+00  0.197E+00  0.107E+00  0.105E+00
 -13.836  0.449E+00  0.203E+00  0.125E+00  0.121E+00
 -13.736  0.481E+00  0.201E+00  0.143E+00  0.137E+00
 -13.636  0.492E+00  0.192E+00  0.153E+00  0.147E+00
 -13.536  0.468E+00  0.177E+00  0.147E+00  0.143E+00
 -13.436  0.404E+00  0.156E+00  0.124E+00  0.124E+00
 -13.336  0.312E+00  0.128E+00  0.899E-01  0.944E-01
 -13.236  0.216E+00  0.977E-01  0.564E-01  0.622E-01
 -13.136  0.134E+00  0.681E-01  0.304E-01  0.353E-01
 -13.036  0.732E-01  0.420E-01  0.140E-01  0.171E-01
 -12.936  0.349E-01  0.222E-01  0.552E-02  0.712E-02
 -12.836  0.142E-01  0.977E-02  0.186E-02  0.256E-02
 -12.736  0.482E-02  0.348E-02  0.543E-03  0.801E-03
 -12.636  0.135E-02  0.991E-03  0.137E-03  0.218E-03
 -12.536  0.303E-03  0.223E-03  0.295E-04  0.509E-04
 -12.436  0.546E-04  0.394E-04  0.532E-05  0.991E-05
 -12.336  0.779E-05  0.544E-05  0.784E-06  0.157E-05
 -12.236  0.875E-06  0.585E-06  0.928E-07  0.197E-06
 -12.136  0.771E-07  0.489E-07  0.868E-08  0.195E-07
 -12.036  0.532E-08  0.317E-08  0.638E-09  0.150E-08
 -11.936  0.286E-09  0.160E-09  0.366E-10  0.899E-10
 -11.836  0.120E-10  0.624E-11  0.163E-11  0.414E-11
 -11.736  0.390E-12  0.187E-12  0.559E-13  0.147E-12
 -11.636  0.751E-14  0.231E-14  0.132E-14  0.388E-14
 -11.536  0.000E+00  0.000E+00  0.000E+00  0.000E+00
 -11.436  0.000E+00  0.000E+00  0.000E+00  0.000E+00
 -11.336  0.000E+00  0.000E+00  0.000E+00  0.000E+00
 -11.236  0.000E+00  0.000E+00  0.000E+00  0.000E+00
 -11.136  0.000E+00  0.000E+00  0.000E+00  0.000E+00
 -11.036  0.000E+00  0.000E+00  0.000E+00  0.000E+00
 -10.936  0.000E+00  0.000E+00  0.000E+00  0.000E+00
 -10.836  0.000E+00  0.000E+00  0.000E+00  0.000E+00
 -10.736  0.000E+00  0.000E+00  0.000E+00  0.000E+00
 -10.636  0.000E+00  0.000E+00  0.000E+00  0.000E+00
 -10.536  0.000E+00  0.000E+00  0.000E+00  0.000E+00
 -10.436  0.000E+00  0.000E+00  0.000E+00  0.000E+00
 -10.336  0.000E+00  0.000E+00  0.000E+00  0.000E+00
 -10.236  0.000E+00  0.000E+00  0.000E+00  0.000E+00
 -10.136  0.000E+00  0.000E+00  0.000E+00  0.000E+00
 -10.036  0.000E+00  0.000E+00  0.000E+00  0.000E+00
  -9.936  0.000E+00  0.000E+00  0.000E+00  0.000E+00
  -9.836  0.000E+00  0.000E+00  0.000E+00  0.000E+00
  -9.736  0.000E+00  0.000E+00  0.000E+00  0.000E+00
  -9.636  0.000E+00  0.000E+00  0.000E+00  0.000E+00
  -9.536  0.000E+00  0.000E+00  0.000E+00  0.000E+00
  -9.436  0.000E+00  0.000E+00  0.000E+00  0.000E+00
  -9.336  0.000E+00  0.000E+00  0.000E+00  0.000E+00
  -9.236  0.000E+00  0.000E+00  0.000E+00  0.000E+00
  -9.136  0.000E+00  0.000E+00  0.000E+00  0.000E+00
  -9.036  0.000E+00  0.000E+00  0.000E+00  0.000E+00
  -8.936  0.000E+00  0.000E+00  0.000E+00  0.000E+00
  -8.836  0.000E+00  0.000E+00  0.000E+00  0.000E+00
  -8.736  0.144E-13  0.439E-15  0.622E-14  0.773E-14
  -8.636  0.635E-12  0.192E-13  0.271E-12  0.344E-12
  -8.536  0.194E-10  0.585E-12  0.828E-11  0.105E-10
  -8.436  0.455E-09  0.137E-10  0.194E-09  0.247E-09
  -8.336  0.818E-08  0.245E-09  0.348E-08  0.446E-08
  -8.236  0.113E-06  0.337E-08  0.479E-07  0.617E-07
  -8.136  0.120E-05  0.357E-07  0.508E-06  0.657E-06
  -8.036  0.982E-05  0.291E-06  0.415E-05  0.538E-05
  -7.936  0.620E-04  0.184E-05  0.262E-04  0.340E-04
  -7.836  0.304E-03  0.906E-05  0.128E-03  0.166E-03
  -7.736  0.116E-02  0.351E-04  0.491E-03  0.634E-03
  -7.636  0.349E-02  0.109E-03  0.148E-02  0.189E-02
  -7.536  0.839E-02  0.285E-03  0.361E-02  0.450E-02
  -7.436  0.166E-01  0.662E-03  0.723E-02  0.872E-02
  -7.336  0.280E-01  0.146E-02  0.123E-01  0.142E-01
  -7.236  0.420E-01  0.310E-02  0.185E-01  0.203E-01
  -7.136  0.578E-01  0.614E-02  0.252E-01  0.265E-01
  -7.036  0.744E-01  0.110E-01  0.314E-01  0.321E-01
  -6.936  0.902E-01  0.175E-01  0.363E-01  0.364E-01
  -6.836  0.103E+00  0.250E-01  0.392E-01  0.387E-01
  -6.736  0.110E+00  0.326E-01  0.396E-01  0.383E-01
  -6.636  0.111E+00  0.386E-01  0.368E-01  0.352E-01
  -6.536  0.103E+00  0.420E-01  0.314E-01  0.299E-01
  -6.436  0.910E-01  0.428E-01  0.246E-01  0.236E-01
  -6.336  0.775E-01  0.421E-01  0.180E-01  0.175E-01
  -6.236  0.655E-01  0.403E-01  0.127E-01  0.125E-01
  -6.136  0.555E-01  0.373E-01  0.920E-02  0.895E-02
  -6.036  0.468E-01  0.329E-01  0.717E-02  0.678E-02
  -5.936  0.393E-01  0.276E-01  0.613E-02  0.558E-02
  -5.836  0.334E-01  0.224E-01  0.578E-02  0.521E-02
  -5.736  0.310E-01  0.184E-01  0.649E-02  0.613E-02
  -5.636  0.351E-01  0.167E-01  0.916E-02  0.927E-02
  -5.536  0.480E-01  0.178E-01  0.147E-01  0.154E-01
  -5.436  0.689E-01  0.214E-01  0.231E-01  0.244E-01
  -5.336  0.925E-01  0.258E-01  0.327E-01  0.340E-01
  -5.236  0.111E+00  0.294E-01  0.404E-01  0.413E-01
  -5.136  0.119E+00  0.320E-01  0.435E-01  0.438E-01
  -5.036  0.118E+00  0.348E-01  0.415E-01  0.413E-01
  -4.936  0.111E+00  0.394E-01  0.358E-01  0.354E-01
  -4.836  0.104E+00  0.465E-01  0.288E-01  0.284E-01
  -4.736  0.998E-01  0.550E-01  0.227E-01  0.221E-01
  -4.636  0.976E-01  0.615E-01  0.185E-01  0.176E-01
  -4.536  0.938E-01  0.624E-01  0.161E-01  0.153E-01
  -4.436  0.863E-01  0.565E-01  0.152E-01  0.146E-01
  -4.336  0.759E-01  0.459E-01  0.150E-01  0.151E-01
  -4.236  0.657E-01  0.345E-01  0.152E-01  0.159E-01
  -4.136  0.580E-01  0.254E-01  0.159E-01  0.167E-01
  -4.036  0.530E-01  0.192E-01  0.169E-01  0.169E-01
  -3.936  0.500E-01  0.152E-01  0.181E-01  0.166E-01
  -3.836  0.488E-01  0.128E-01  0.197E-01  0.163E-01
  -3.736  0.499E-01  0.117E-01  0.216E-01  0.165E-01
  -3.636  0.530E-01  0.120E-01  0.237E-01  0.173E-01
  -3.536  0.571E-01  0.134E-01  0.251E-01  0.186E-01
  -3.436  0.613E-01  0.155E-01  0.257E-01  0.202E-01
  -3.336  0.651E-01  0.177E-01  0.255E-01  0.220E-01
  -3.236  0.683E-01  0.196E-01  0.249E-01  0.239E-01
  -3.136  0.698E-01  0.207E-01  0.240E-01  0.251E-01
  -3.036  0.690E-01  0.210E-01  0.229E-01  0.251E-01
  -2.936  0.657E-01  0.205E-01  0.214E-01  0.238E-01
  -2.836  0.608E-01  0.193E-01  0.198E-01  0.217E-01
  -2.736  0.558E-01  0.176E-01  0.184E-01  0.199E-01
  -2.636  0.520E-01  0.156E-01  0.176E-01  0.188E-01
  -2.536  0.500E-01  0.139E-01  0.175E-01  0.186E-01
  -2.436  0.503E-01  0.130E-01  0.182E-01  0.190E-01
  -2.336  0.527E-01  0.130E-01  0.195E-01  0.201E-01
  -2.236  0.567E-01  0.133E-01  0.215E-01  0.219E-01
  -2.136  0.609E-01  0.132E-01  0.239E-01  0.238E-01
  -2.036  0.637E-01  0.127E-01  0.259E-01  0.251E-01
  -1.936  0.641E-01  0.121E-01  0.269E-01  0.251E-01
  -1.836  0.610E-01  0.115E-01  0.260E-01  0.235E-01
  -1.736  0.545E-01  0.111E-01  0.227E-01  0.207E-01
  -1.636  0.454E-01  0.105E-01  0.179E-01  0.171E-01
  -1.536  0.355E-01  0.926E-02  0.127E-01  0.135E-01
  -1.436  0.262E-01  0.752E-02  0.853E-02  0.102E-01
  -1.336  0.186E-01  0.564E-02  0.561E-02  0.737E-02
  -1.236  0.126E-01  0.396E-02  0.368E-02  0.498E-02
  -1.136  0.796E-02  0.259E-02  0.234E-02  0.303E-02
  -1.036  0.445E-02  0.151E-02  0.135E-02  0.159E-02
  -0.936  0.212E-02  0.752E-03  0.666E-03  0.698E-03
  -0.836  0.829E-03  0.306E-03  0.272E-03  0.251E-03
  -0.736  0.263E-03  0.100E-03  0.897E-04  0.730E-04
  -0.636  0.670E-04  0.261E-04  0.237E-04  0.173E-04
  -0.536  0.178E-04  0.648E-05  0.592E-05  0.541E-05
  -0.436  0.311E-04  0.866E-05  0.748E-05  0.149E-04
  -0.336  0.144E-03  0.393E-04  0.334E-04  0.710E-04
  -0.236  0.546E-03  0.151E-03  0.127E-03  0.267E-03
  -0.136  0.160E-02  0.450E-03  0.377E-03  0.774E-03
  -0.036  0.362E-02  0.103E-02  0.865E-03  0.173E-02
   0.064  0.634E-02  0.182E-02  0.154E-02  0.298E-02
   0.164  0.860E-02  0.249E-02  0.213E-02  0.398E-02
   0.264  0.907E-02  0.265E-02  0.230E-02  0.412E-02
   0.364  0.747E-02  0.219E-02  0.196E-02  0.333E-02
   0.464  0.490E-02  0.143E-02  0.134E-02  0.213E-02
   0.564  0.285E-02  0.785E-03  0.873E-03  0.119E-02
   0.664  0.235E-02  0.520E-03  0.901E-03  0.932E-03
   0.764  0.389E-02  0.741E-03  0.167E-02  0.148E-02
   0.864  0.749E-02  0.145E-02  0.322E-02  0.282E-02
   0.964  0.125E-01  0.249E-02  0.530E-02  0.471E-02
   1.064  0.175E-01  0.350E-02  0.727E-02  0.669E-02
   1.164  0.209E-01  0.412E-02  0.855E-02  0.827E-02
   1.264  0.226E-01  0.430E-02  0.904E-02  0.922E-02
   1.364  0.231E-01  0.433E-02  0.910E-02  0.969E-02
   1.464  0.237E-01  0.458E-02  0.918E-02  0.999E-02
   1.564  0.250E-01  0.525E-02  0.942E-02  0.104E-01
   1.664  0.269E-01  0.630E-02  0.971E-02  0.109E-01
   1.764  0.290E-01  0.745E-02  0.100E-01  0.116E-01
   1.864  0.310E-01  0.840E-02  0.104E-01  0.121E-01
   1.964  0.325E-01  0.890E-02  0.111E-01  0.124E-01
   2.064  0.329E-01  0.881E-02  0.119E-01  0.122E-01
   2.164  0.313E-01  0.802E-02  0.120E-01  0.113E-01
   2.264  0.268E-01  0.652E-02  0.109E-01  0.945E-02
   2.364  0.199E-01  0.457E-02  0.837E-02  0.692E-02
   2.464  0.123E-01  0.269E-02  0.533E-02  0.428E-02
   2.564  0.623E-02  0.131E-02  0.274E-02  0.218E-02
   2.664  0.255E-02  0.525E-03  0.113E-02  0.894E-03
   2.764  0.832E-03  0.173E-03  0.367E-03  0.292E-03
   2.864  0.217E-03  0.476E-04  0.941E-04  0.755E-04
   2.964  0.453E-04  0.110E-04  0.190E-04  0.153E-04
   3.064  0.764E-05  0.217E-05  0.304E-05  0.243E-05
   3.164  0.105E-05  0.363E-06  0.386E-06  0.301E-06
   3.264  0.120E-06  0.509E-07  0.393E-07  0.293E-07
   3.364  0.114E-07  0.588E-08  0.325E-08  0.225E-08
   3.464  0.905E-09  0.546E-09  0.221E-09  0.138E-09
