# E (eV)   ldos(E)   pdos(E)    pdos(E)    pdos(E)   
 -16.436  0.936E-07  0.226E-07  0.392E-07  0.317E-07
 -16.336  0.904E-06  0.202E-06  0.389E-06  0.313E-06
 -16.236  0.683E-05  0.139E-05  0.301E-05  0.242E-05
 -16.136  0.406E-04  0.749E-05  0.184E-04  0.147E-04
 -16.036  0.191E-03  0.314E-04  0.887E-04  0.705E-04
 -15.936  0.714E-03  0.104E-03  0.341E-03  0.269E-03
 -15.836  0.216E-02  0.276E-03  0.106E-02  0.823E-03
 -15.736  0.534E-02  0.601E-03  0.269E-02  0.205E-02
 -15.636  0.110E-01  0.114E-02  0.565E-02  0.425E-02
 -15.536  0.196E-01  0.200E-02  0.101E-01  0.754E-02
 -15.436  0.311E-01  0.349E-02  0.157E-01  0.119E-01
 -15.336  0.454E-01  0.594E-02  0.221E-01  0.174E-01
 -15.236  0.623E-01  0.922E-02  0.288E-01  0.243E-01
 -15.136  0.807E-01  0.124E-01  0.356E-01  0.327E-01
 -15.036  0.982E-01  0.140E-01  0.421E-01  0.420E-01
 -14.936  0.113E+00  0.140E-01  0.480E-01  0.515E-01
 -14.836  0.127E+00  0.140E-01  0.530E-01  0.603E-01
 -14.736  0.143E+00  0.182E-01  0.572E-01  0.679E-01
 -14.636  0.168E+00  0.323E-01  0.612E-01  0.744E-01
 -14.536  0.206E+00  0.602E-01  0.658E-01  0.802E-01
 -14.436  0.257E+00  0.998E-01  0.713E-01  0.857E-01
 -14.336  0.308E+00  0.140E+00  0.772E-01  0.902E-01
 -14.236  0.344E+00  0.169E+00  0.823E-01  0.929E-01
 -14.136  0.362E+00  0.181E+00  0.870E-01  0.942E-01
 -14.036  0.370E+00  0.182E+00  0.931E-01  0.957E-01
 -13.936  0.380E+00  0.177E+00  0.103E+00  0.995E-01
 -13.836  0.394E+00  0.171E+00  0.116E+00  0.106E+00
 -13.736  0.410E+00  0.165E+00  0.130E+00  0.115E+00
 -13.636  0.418E+00  0.158E+00  0.138E+00  0.121E+00
 -13.536  0.401E+00  0.149E+00  0.133E+00  0.120E+00
 -13.436  0.354E+00  0.133E+00  0.114E+00  0.107E+00
 -13.336  0.282E+00  0.112E+00  0.854E-01  0.847E-01
 -13.236  0.202E+00  0.879E-01  0.557E-01  0.579E-01
 -13.136  0.129E+00  0.634E-01  0.313E-01  0.339E-01
 -13.036  0.728E-01  0.408E-01  0.151E-01  0.168E-01
 -12.936  0.360E-01  0.226E-01  0.623E-02  0.714E-02
 -12.836  0.152E-01  0.104E-01  0.221E-02  0.262E-02
 -12.736  0.536E-02  0.384E-02  0.677E-03  0.839E-03
 -12.636  0.154E-02  0.113E-02  0.178E-03  0.234E-03
 -12.536  0.357E-03  0.262E-03  0.392E-04  0.557E-04
 -12.436  0.657E-04  0.476E-04  0.714E-05  0.110E-04
 -12.336  0.953E-05  0.673E-05  0.105E-05  0.175E-05
 -12.236  0.109E-05  0.740E-06  0.123E-06  0.222E-06
 -12.136  0.967E-07  0.633E-07  0.114E-07  0.220E-07
 -12.036  0.673E-08  0.420E-08  0.822E-09  0.170E-08
 -11.936  0.365E-09  0.217E-09  0.465E-10  0.102E-09
 -11.836  0.154E-10  0.866E-11  0.204E-11  0.470E-11
 -11.736  0.504E-12  0.267E-12  0.694E-13  0.167E-12
 -11.636  0.101E-13  0.418E-14  0.156E-14  0.440E-14
 -11.536  0.000E+00  0.000E+00  0.000E+00  0.000E+00
 -11.436  0.000E+00  0.000E+00  0.000E+00  0.000E+00
 -11.336  0.000E+00  0.000E+00  0.000E+00  0.000E+00
 -11.236  0.000E+00  0.000E+00  0.000E+00  0.000E+00
 -11.136  0.000E+00  0.000E+00  0.000E+00  0.000E+00
 -11.036  0.000E+00  0.000E+00  0.000E+00  0.000E+00
 -10.936  0.000E+00  0.000E+00  0.000E+00  0.000E+00
 -10.836  0.000E+00  0.000E+00  0.000E+00  0.000E+00
 -10.736  0.000E+00  0.000E+00  0.000E+00  0.000E+00
 -10.636  0.000E+00  0.000E+00  0.000E+00  0.000E+00
 -10.536  0.000E+00  0.000E+00  0.000E+00  0.000E+00
 -10.436  0.000E+00  0.000E+00  0.000E+00  0.000E+00
 -10.336  0.000E+00  0.000E+00  0.000E+00  0.000E+00
 -10.236  0.000E+00  0.000E+00  0.000E+00  0.000E+00
 -10.136  0.000E+00  0.000E+00  0.000E+00  0.000E+00
 -10.036  0.000E+00  0.000E+00  0.000E+00  0.000E+00
  -9.936  0.000E+00  0.000E+00  0.000E+00  0.000E+00
  -9.836  0.000E+00  0.000E+00  0.000E+00  0.000E+00
  -9.736  0.000E+00  0.000E+00  0.000E+00  0.000E+00
  -9.636  0.000E+00  0.000E+00  0.000E+00  0.000E+00
  -9.536  0.000E+00  0.000E+00  0.000E+00  0.000E+00
  -9.436  0.000E+00  0.000E+00  0.000E+00  0.000E+00
  -9.336  0.000E+00  0.000E+00  0.000E+00  0.000E+00
  -9.236  0.000E+00  0.000E+00  0.000E+00  0.000E+00
  -9.136  0.000E+00  0.000E+00  0.000E+00  0.000E+00
  -9.036  0.000E+00  0.000E+00  0.000E+00  0.000E+00
  -8.936  0.000E+00  0.000E+00  0.000E+00  0.000E+00
  -8.836  0.000E+00  0.000E+00  0.000E+00  0.000E+00
  -8.736  0.225E-13  0.488E-15  0.101E-13  0.120E-13
  -8.636  0.104E-11  0.216E-13  0.462E-12  0.556E-12
  -8.536  0.320E-10  0.658E-12  0.142E-10  0.171E-10
  -8.436  0.757E-09  0.154E-10  0.336E-09  0.406E-09
  -8.336  0.137E-07  0.277E-09  0.609E-08  0.737E-08
  -8.236  0.192E-06  0.384E-08  0.849E-07  0.103E-06
  -8.136  0.205E-05  0.409E-07  0.909E-06  0.110E-05
  -8.036  0.169E-04  0.336E-06  0.749E-05  0.912E-05
  -7.936  0.108E-03  0.215E-05  0.476E-04  0.580E-04
  -7.836  0.530E-03  0.108E-04  0.234E-03  0.285E-03
  -7.736  0.202E-02  0.431E-04  0.890E-03  0.108E-02
  -7.636  0.599E-02  0.142E-03  0.264E-02  0.321E-02
  -7.536  0.140E-01  0.406E-03  0.618E-02  0.744E-02
  -7.436  0.263E-01  0.106E-02  0.116E-01  0.137E-01
  -7.336  0.409E-01  0.254E-02  0.178E-01  0.205E-01
  -7.236  0.548E-01  0.552E-02  0.235E-01  0.259E-01
  -7.136  0.671E-01  0.105E-01  0.278E-01  0.289E-01
  -7.036  0.781E-01  0.169E-01  0.308E-01  0.303E-01
  -6.936  0.871E-01  0.234E-01  0.328E-01  0.310E-01
  -6.836  0.927E-01  0.284E-01  0.333E-01  0.310E-01
  -6.736  0.932E-01  0.314E-01  0.320E-01  0.298E-01
  -6.636  0.890E-01  0.327E-01  0.290E-01  0.272E-01
  -6.536  0.817E-01  0.326E-01  0.252E-01  0.239E-01
  -6.436  0.734E-01  0.315E-01  0.212E-01  0.206E-01
  -6.336  0.656E-01  0.306E-01  0.175E-01  0.175E-01
  -6.236  0.594E-01  0.312E-01  0.140E-01  0.141E-01
  -6.136  0.558E-01  0.343E-01  0.109E-01  0.106E-01
  -6.036  0.554E-01  0.395E-01  0.834E-02  0.754E-02
  -5.936  0.566E-01  0.445E-01  0.665E-02  0.548E-02
  -5.836  0.565E-01  0.455E-01  0.607E-02  0.488E-02
  -5.736  0.548E-01  0.413E-01  0.733E-02  0.620E-02
  -5.636  0.560E-01  0.343E-01  0.115E-01  0.102E-01
  -5.536  0.655E-01  0.294E-01  0.189E-01  0.172E-01
  -5.436  0.837E-01  0.286E-01  0.285E-01  0.266E-01
  -5.336  0.103E+00  0.306E-01  0.371E-01  0.357E-01
  -5.236  0.115E+00  0.324E-01  0.417E-01  0.413E-01
  -5.136  0.116E+00  0.329E-01  0.410E-01  0.416E-01
  -5.036  0.107E+00  0.331E-01  0.360E-01  0.375E-01
  -4.936  0.955E-01  0.352E-01  0.290E-01  0.313E-01
  -4.836  0.876E-01  0.402E-01  0.224E-01  0.250E-01
  -4.736  0.845E-01  0.469E-01  0.177E-01  0.199E-01
  -4.636  0.841E-01  0.525E-01  0.151E-01  0.165E-01
  -4.536  0.829E-01  0.539E-01  0.143E-01  0.147E-01
  -4.436  0.785E-01  0.500E-01  0.144E-01  0.142E-01
  -4.336  0.713E-01  0.424E-01  0.147E-01  0.142E-01
  -4.236  0.632E-01  0.337E-01  0.151E-01  0.145E-01
  -4.136  0.558E-01  0.259E-01  0.153E-01  0.147E-01
  -4.036  0.495E-01  0.199E-01  0.151E-01  0.146E-01
  -3.936  0.443E-01  0.154E-01  0.146E-01  0.143E-01
  -3.836  0.408E-01  0.124E-01  0.142E-01  0.142E-01
  -3.736  0.397E-01  0.106E-01  0.145E-01  0.147E-01
  -3.636  0.409E-01  0.100E-01  0.152E-01  0.157E-01
  -3.536  0.436E-01  0.107E-01  0.161E-01  0.169E-01
  -3.436  0.479E-01  0.125E-01  0.171E-01  0.183E-01
  -3.336  0.539E-01  0.153E-01  0.185E-01  0.201E-01
  -3.236  0.607E-01  0.188E-01  0.200E-01  0.218E-01
  -3.136  0.662E-01  0.219E-01  0.213E-01  0.230E-01
  -3.036  0.689E-01  0.236E-01  0.221E-01  0.232E-01
  -2.936  0.691E-01  0.237E-01  0.226E-01  0.228E-01
  -2.836  0.683E-01  0.229E-01  0.232E-01  0.222E-01
  -2.736  0.678E-01  0.220E-01  0.240E-01  0.218E-01
  -2.636  0.674E-01  0.212E-01  0.247E-01  0.215E-01
  -2.536  0.666E-01  0.202E-01  0.249E-01  0.214E-01
  -2.436  0.654E-01  0.192E-01  0.248E-01  0.214E-01
  -2.336  0.647E-01  0.183E-01  0.247E-01  0.217E-01
  -2.236  0.648E-01  0.175E-01  0.247E-01  0.225E-01
  -2.136  0.654E-01  0.165E-01  0.250E-01  0.239E-01
  -2.036  0.655E-01  0.152E-01  0.251E-01  0.251E-01
  -1.936  0.637E-01  0.137E-01  0.245E-01  0.254E-01
  -1.836  0.591E-01  0.122E-01  0.230E-01  0.239E-01
  -1.736  0.525E-01  0.107E-01  0.210E-01  0.208E-01
  -1.636  0.455E-01  0.969E-02  0.189E-01  0.169E-01
  -1.536  0.392E-01  0.930E-02  0.167E-01  0.132E-01
  -1.436  0.334E-01  0.949E-02  0.139E-01  0.100E-01
  -1.336  0.274E-01  0.962E-02  0.106E-01  0.714E-02
  -1.236  0.206E-01  0.884E-02  0.715E-02  0.464E-02
  -1.136  0.137E-01  0.687E-02  0.421E-02  0.266E-02
  -1.036  0.782E-02  0.435E-02  0.215E-02  0.132E-02
  -0.936  0.369E-02  0.219E-02  0.951E-03  0.555E-03
  -0.836  0.142E-02  0.871E-03  0.358E-03  0.196E-03
  -0.736  0.442E-03  0.272E-03  0.112E-03  0.575E-04
  -0.636  0.110E-03  0.671E-04  0.288E-04  0.139E-04
  -0.536  0.240E-04  0.142E-04  0.635E-05  0.341E-05
  -0.436  0.196E-04  0.104E-04  0.384E-05  0.540E-05
  -0.336  0.831E-04  0.420E-04  0.151E-04  0.259E-04
  -0.236  0.324E-03  0.160E-03  0.603E-04  0.104E-03
  -0.136  0.980E-03  0.469E-03  0.188E-03  0.323E-03
  -0.036  0.229E-02  0.106E-02  0.453E-03  0.778E-03
   0.064  0.416E-02  0.185E-02  0.850E-03  0.146E-02
   0.164  0.588E-02  0.250E-02  0.124E-02  0.214E-02
   0.264  0.649E-02  0.262E-02  0.142E-02  0.246E-02
   0.364  0.563E-02  0.213E-02  0.128E-02  0.222E-02
   0.464  0.396E-02  0.137E-02  0.955E-03  0.163E-02
   0.564  0.268E-02  0.773E-03  0.782E-03  0.113E-02
   0.664  0.301E-02  0.620E-03  0.117E-02  0.122E-02
   0.764  0.590E-02  0.109E-02  0.253E-02  0.229E-02
   0.864  0.117E-01  0.226E-02  0.500E-02  0.449E-02
   0.964  0.196E-01  0.396E-02  0.815E-02  0.749E-02
   1.064  0.270E-01  0.564E-02  0.110E-01  0.104E-01
   1.164  0.315E-01  0.665E-02  0.125E-01  0.123E-01
   1.264  0.322E-01  0.677E-02  0.126E-01  0.128E-01
   1.364  0.302E-01  0.631E-02  0.118E-01  0.121E-01
   1.464  0.273E-01  0.583E-02  0.108E-01  0.106E-01
   1.564  0.246E-01  0.570E-02  0.994E-02  0.896E-02
   1.664  0.229E-01  0.598E-02  0.926E-02  0.762E-02
   1.764  0.224E-01  0.652E-02  0.895E-02  0.697E-02
   1.864  0.235E-01  0.712E-02  0.921E-02  0.713E-02
   1.964  0.254E-01  0.765E-02  0.993E-02  0.786E-02
   2.064  0.272E-01  0.795E-02  0.106E-01  0.858E-02
   2.164  0.270E-01  0.780E-02  0.106E-01  0.859E-02
   2.264  0.238E-01  0.697E-02  0.933E-02  0.752E-02
   2.364  0.180E-01  0.543E-02  0.697E-02  0.559E-02
   2.464  0.114E-01  0.357E-02  0.431E-02  0.347E-02
   2.564  0.588E-02  0.193E-02  0.218E-02  0.177E-02
   2.664  0.247E-02  0.850E-03  0.884E-03  0.735E-03
   2.764  0.835E-03  0.301E-03  0.287E-03  0.247E-03
   2.864  0.227E-03  0.860E-04  0.740E-04  0.671E-04
   2.964  0.498E-04  0.199E-04  0.151E-04  0.148E-04
   3.064  0.889E-05  0.375E-05  0.246E-05  0.268E-05
   3.164  0.131E-05  0.586E-06  0.320E-06  0.401E-06
   3.264  0.160E-06  0.761E-07  0.336E-07  0.503E-07
   3.364  0.163E-07  0.818E-08  0.289E-08  0.527E-08
   3.464  0.138E-08  0.720E-09  0.206E-09  0.455E-09
