# E (eV)   ldos(E)   pdos(E)    pdos(E)    pdos(E)   
 -16.436  0.549E-07  0.487E-07  0.308E-08  0.308E-08
 -16.336  0.495E-06  0.434E-06  0.305E-07  0.305E-07
 -16.236  0.347E-05  0.300E-05  0.236E-06  0.236E-06
 -16.136  0.189E-04  0.161E-04  0.143E-05  0.143E-05
 -16.036  0.811E-04  0.673E-04  0.690E-05  0.690E-05
 -15.936  0.274E-03  0.221E-03  0.264E-04  0.264E-04
 -15.836  0.740E-03  0.577E-03  0.815E-04  0.815E-04
 -15.736  0.162E-02  0.121E-02  0.205E-03  0.205E-03
 -15.636  0.291E-02  0.205E-02  0.429E-03  0.429E-03
 -15.536  0.443E-02  0.290E-02  0.761E-03  0.761E-03
 -15.436  0.585E-02  0.348E-02  0.119E-02  0.119E-02
 -15.336  0.700E-02  0.363E-02  0.168E-02  0.168E-02
 -15.236  0.792E-02  0.343E-02  0.225E-02  0.225E-02
 -15.136  0.887E-02  0.311E-02  0.288E-02  0.288E-02
 -15.036  0.101E-01  0.292E-02  0.358E-02  0.358E-02
 -14.936  0.115E-01  0.297E-02  0.428E-02  0.428E-02
 -14.836  0.131E-01  0.326E-02  0.493E-02  0.493E-02
 -14.736  0.146E-01  0.374E-02  0.541E-02  0.541E-02
 -14.636  0.157E-01  0.444E-02  0.561E-02  0.561E-02
 -14.536  0.164E-01  0.536E-02  0.552E-02  0.552E-02
 -14.436  0.169E-01  0.633E-02  0.526E-02  0.526E-02
 -14.336  0.172E-01  0.704E-02  0.510E-02  0.510E-02
 -14.236  0.177E-01  0.723E-02  0.524E-02  0.524E-02
 -14.136  0.184E-01  0.696E-02  0.571E-02  0.571E-02
 -14.036  0.194E-01  0.660E-02  0.638E-02  0.638E-02
 -13.936  0.205E-01  0.660E-02  0.695E-02  0.696E-02
 -13.836  0.215E-01  0.713E-02  0.718E-02  0.718E-02
 -13.736  0.220E-01  0.803E-02  0.699E-02  0.699E-02
 -13.636  0.220E-01  0.880E-02  0.657E-02  0.657E-02
 -13.536  0.212E-01  0.892E-02  0.614E-02  0.614E-02
 -13.436  0.195E-01  0.819E-02  0.567E-02  0.567E-02
 -13.336  0.168E-01  0.683E-02  0.499E-02  0.499E-02
 -13.236  0.131E-01  0.512E-02  0.397E-02  0.397E-02
 -13.136  0.888E-02  0.338E-02  0.275E-02  0.275E-02
 -13.036  0.514E-02  0.191E-02  0.162E-02  0.162E-02
 -12.936  0.248E-02  0.892E-03  0.793E-03  0.793E-03
 -12.836  0.978E-03  0.339E-03  0.319E-03  0.319E-03
 -12.736  0.312E-03  0.104E-03  0.104E-03  0.104E-03
 -12.636  0.797E-04  0.251E-04  0.273E-04  0.273E-04
 -12.536  0.162E-04  0.482E-05  0.570E-05  0.570E-05
 -12.436  0.262E-05  0.726E-06  0.946E-06  0.946E-06
 -12.336  0.334E-06  0.856E-07  0.124E-06  0.124E-06
 -12.236  0.337E-07  0.786E-08  0.129E-07  0.129E-07
 -12.136  0.267E-08  0.562E-09  0.106E-08  0.106E-08
 -12.036  0.167E-09  0.312E-10  0.681E-10  0.681E-10
 -11.936  0.825E-11  0.135E-11  0.345E-11  0.345E-11
 -11.836  0.319E-12  0.446E-13  0.137E-12  0.137E-12
 -11.736  0.932E-14  0.104E-14  0.414E-14  0.414E-14
 -11.636  0.160E-15  0.351E-17  0.782E-16  0.782E-16
 -11.536  0.000E+00  0.000E+00  0.000E+00  0.000E+00
 -11.436  0.000E+00  0.000E+00  0.000E+00  0.000E+00
 -11.336  0.000E+00  0.000E+00  0.000E+00  0.000E+00
 -11.236  0.000E+00  0.000E+00  0.000E+00  0.000E+00
 -11.136  0.000E+00  0.000E+00  0.000E+00  0.000E+00
 -11.036  0.000E+00  0.000E+00  0.000E+00  0.000E+00
 -10.936  0.000E+00  0.000E+00  0.000E+00  0.000E+00
 -10.836  0.000E+00  0.000E+00  0.000E+00  0.000E+00
 -10.736  0.000E+00  0.000E+00  0.000E+00  0.000E+00
 -10.636  0.000E+00  0.000E+00  0.000E+00  0.000E+00
 -10.536  0.000E+00  0.000E+00  0.000E+00  0.000E+00
 -10.436  0.000E+00  0.000E+00  0.000E+00  0.000E+00
 -10.336  0.000E+00  0.000E+00  0.000E+00  0.000E+00
 -10.236  0.000E+00  0.000E+00  0.000E+00  0.000E+00
 -10.136  0.000E+00  0.000E+00  0.000E+00  0.000E+00
 -10.036  0.000E+00  0.000E+00  0.000E+00  0.000E+00
  -9.936  0.000E+00  0.000E+00  0.000E+00  0.000E+00
  -9.836  0.000E+00  0.000E+00  0.000E+00  0.000E+00
  -9.736  0.000E+00  0.000E+00  0.000E+00  0.000E+00
  -9.636  0.000E+00  0.000E+00  0.000E+00  0.000E+00
  -9.536  0.000E+00  0.000E+00  0.000E+00  0.000E+00
  -9.436  0.000E+00  0.000E+00  0.000E+00  0.000E+00
  -9.336  0.000E+00  0.000E+00  0.000E+00  0.000E+00
  -9.236  0.000E+00  0.000E+00  0.000E+00  0.000E+00
  -9.136  0.000E+00  0.000E+00  0.000E+00  0.000E+00
  -9.036  0.000E+00  0.000E+00  0.000E+00  0.000E+00
  -8.936  0.000E+00  0.000E+00  0.000E+00  0.000E+00
  -8.836  0.000E+00  0.000E+00  0.000E+00  0.000E+00
  -8.736  0.110E-12  0.301E-15  0.548E-13  0.548E-13
  -8.636  0.506E-11  0.126E-13  0.252E-11  0.252E-11
  -8.536  0.156E-09  0.378E-12  0.778E-10  0.777E-10
  -8.436  0.368E-08  0.876E-11  0.184E-08  0.184E-08
  -8.336  0.668E-07  0.156E-09  0.333E-07  0.333E-07
  -8.236  0.932E-06  0.213E-08  0.465E-06  0.465E-06
  -8.136  0.999E-05  0.228E-07  0.499E-05  0.498E-05
  -8.036  0.825E-04  0.193E-06  0.411E-04  0.411E-04
  -7.936  0.525E-03  0.135E-05  0.262E-03  0.262E-03
  -7.836  0.258E-02  0.809E-05  0.129E-02  0.129E-02
  -7.736  0.986E-02  0.443E-04  0.491E-02  0.491E-02
  -7.636  0.294E-01  0.224E-03  0.146E-01  0.146E-01
  -7.536  0.696E-01  0.102E-02  0.343E-01  0.343E-01
  -7.436  0.134E+00  0.395E-02  0.648E-01  0.648E-01
  -7.336  0.216E+00  0.127E-01  0.102E+00  0.102E+00
  -7.236  0.314E+00  0.334E-01  0.140E+00  0.140E+00
  -7.136  0.432E+00  0.721E-01  0.180E+00  0.180E+00
  -7.036  0.579E+00  0.129E+00  0.225E+00  0.225E+00
  -6.936  0.743E+00  0.194E+00  0.275E+00  0.275E+00
  -6.836  0.885E+00  0.253E+00  0.316E+00  0.316E+00
  -6.736  0.961E+00  0.293E+00  0.334E+00  0.334E+00
  -6.636  0.955E+00  0.307E+00  0.324E+00  0.324E+00
  -6.536  0.881E+00  0.292E+00  0.294E+00  0.294E+00
  -6.436  0.761E+00  0.252E+00  0.254E+00  0.255E+00
  -6.336  0.622E+00  0.195E+00  0.213E+00  0.213E+00
  -6.236  0.497E+00  0.142E+00  0.177E+00  0.177E+00
  -6.136  0.414E+00  0.108E+00  0.153E+00  0.153E+00
  -6.036  0.374E+00  0.951E-01  0.140E+00  0.140E+00
  -5.936  0.356E+00  0.933E-01  0.131E+00  0.131E+00
  -5.836  0.337E+00  0.946E-01  0.121E+00  0.121E+00
  -5.736  0.318E+00  0.102E+00  0.108E+00  0.108E+00
  -5.636  0.323E+00  0.127E+00  0.979E-01  0.979E-01
  -5.536  0.376E+00  0.178E+00  0.989E-01  0.989E-01
  -5.436  0.482E+00  0.250E+00  0.116E+00  0.116E+00
  -5.336  0.609E+00  0.318E+00  0.145E+00  0.145E+00
  -5.236  0.707E+00  0.352E+00  0.178E+00  0.178E+00
  -5.136  0.744E+00  0.339E+00  0.202E+00  0.202E+00
  -5.036  0.725E+00  0.297E+00  0.214E+00  0.214E+00
  -4.936  0.696E+00  0.253E+00  0.222E+00  0.222E+00
  -4.836  0.705E+00  0.228E+00  0.238E+00  0.238E+00
  -4.736  0.770E+00  0.225E+00  0.272E+00  0.272E+00
  -4.636  0.865E+00  0.238E+00  0.313E+00  0.313E+00
  -4.536  0.933E+00  0.254E+00  0.339E+00  0.339E+00
  -4.436  0.925E+00  0.263E+00  0.331E+00  0.331E+00
  -4.336  0.833E+00  0.254E+00  0.290E+00  0.290E+00
  -4.236  0.698E+00  0.227E+00  0.235E+00  0.235E+00
  -4.136  0.570E+00  0.190E+00  0.190E+00  0.190E+00
  -4.036  0.481E+00  0.154E+00  0.164E+00  0.164E+00
  -3.936  0.431E+00  0.126E+00  0.152E+00  0.152E+00
  -3.836  0.408E+00  0.111E+00  0.148E+00  0.148E+00
  -3.736  0.411E+00  0.109E+00  0.151E+00  0.151E+00
  -3.636  0.448E+00  0.121E+00  0.164E+00  0.164E+00
  -3.536  0.525E+00  0.150E+00  0.187E+00  0.187E+00
  -3.436  0.639E+00  0.204E+00  0.217E+00  0.217E+00
  -3.336  0.779E+00  0.287E+00  0.246E+00  0.246E+00
  -3.236  0.924E+00  0.387E+00  0.269E+00  0.269E+00
  -3.136  0.104E+01  0.470E+00  0.287E+00  0.287E+00
  -3.036  0.111E+01  0.505E+00  0.302E+00  0.302E+00
  -2.936  0.110E+01  0.482E+00  0.308E+00  0.308E+00
  -2.836  0.101E+01  0.419E+00  0.296E+00  0.296E+00
  -2.736  0.870E+00  0.341E+00  0.265E+00  0.265E+00
  -2.636  0.710E+00  0.266E+00  0.222E+00  0.222E+00
  -2.536  0.569E+00  0.205E+00  0.182E+00  0.182E+00
  -2.436  0.475E+00  0.164E+00  0.155E+00  0.155E+00
  -2.336  0.429E+00  0.143E+00  0.143E+00  0.143E+00
  -2.236  0.418E+00  0.137E+00  0.141E+00  0.141E+00
  -2.136  0.421E+00  0.137E+00  0.142E+00  0.142E+00
  -2.036  0.425E+00  0.136E+00  0.145E+00  0.145E+00
  -1.936  0.426E+00  0.131E+00  0.147E+00  0.147E+00
  -1.836  0.418E+00  0.123E+00  0.148E+00  0.148E+00
  -1.736  0.394E+00  0.109E+00  0.143E+00  0.143E+00
  -1.636  0.349E+00  0.896E-01  0.130E+00  0.130E+00
  -1.536  0.289E+00  0.691E-01  0.110E+00  0.110E+00
  -1.436  0.223E+00  0.519E-01  0.858E-01  0.858E-01
  -1.336  0.163E+00  0.402E-01  0.615E-01  0.615E-01
  -1.236  0.112E+00  0.323E-01  0.400E-01  0.400E-01
  -1.136  0.711E-01  0.250E-01  0.231E-01  0.231E-01
  -1.036  0.399E-01  0.170E-01  0.114E-01  0.114E-01
  -0.936  0.191E-01  0.965E-02  0.473E-02  0.473E-02
  -0.836  0.759E-02  0.440E-02  0.160E-02  0.160E-02
  -0.736  0.245E-02  0.159E-02  0.430E-03  0.430E-03
  -0.636  0.633E-03  0.450E-03  0.916E-04  0.916E-04
  -0.536  0.140E-03  0.109E-03  0.155E-04  0.155E-04
  -0.436  0.906E-04  0.832E-04  0.372E-05  0.371E-05
  -0.336  0.347E-03  0.329E-03  0.913E-05  0.912E-05
  -0.236  0.130E-02  0.123E-02  0.356E-04  0.355E-04
  -0.136  0.378E-02  0.356E-02  0.109E-03  0.109E-03
  -0.036  0.838E-02  0.786E-02  0.260E-03  0.260E-03
   0.064  0.143E-01  0.133E-01  0.481E-03  0.481E-03
   0.164  0.186E-01  0.172E-01  0.695E-03  0.694E-03
   0.264  0.187E-01  0.171E-01  0.801E-03  0.801E-03
   0.364  0.149E-01  0.131E-01  0.860E-03  0.859E-03
   0.464  0.114E-01  0.848E-02  0.147E-02  0.147E-02
   0.564  0.165E-01  0.719E-02  0.465E-02  0.465E-02
   0.664  0.439E-01  0.134E-01  0.153E-01  0.153E-01
   0.764  0.113E+00  0.312E-01  0.410E-01  0.410E-01
   0.864  0.238E+00  0.626E-01  0.878E-01  0.878E-01
   0.964  0.402E+00  0.103E+00  0.150E+00  0.150E+00
   1.064  0.552E+00  0.140E+00  0.206E+00  0.206E+00
   1.164  0.627E+00  0.162E+00  0.233E+00  0.233E+00
   1.264  0.610E+00  0.162E+00  0.224E+00  0.224E+00
   1.364  0.543E+00  0.145E+00  0.199E+00  0.199E+00
   1.464  0.487E+00  0.125E+00  0.181E+00  0.181E+00
   1.564  0.479E+00  0.112E+00  0.183E+00  0.183E+00
   1.664  0.512E+00  0.113E+00  0.200E+00  0.200E+00
   1.764  0.558E+00  0.126E+00  0.216E+00  0.216E+00
   1.864  0.591E+00  0.141E+00  0.225E+00  0.225E+00
   1.964  0.601E+00  0.150E+00  0.225E+00  0.225E+00
   2.064  0.588E+00  0.151E+00  0.218E+00  0.218E+00
   2.164  0.544E+00  0.143E+00  0.201E+00  0.201E+00
   2.264  0.456E+00  0.125E+00  0.166E+00  0.166E+00
   2.364  0.332E+00  0.986E-01  0.117E+00  0.117E+00
   2.464  0.206E+00  0.693E-01  0.683E-01  0.682E-01
   2.564  0.108E+00  0.434E-01  0.323E-01  0.323E-01
   2.664  0.487E-01  0.242E-01  0.123E-01  0.122E-01
   2.764  0.191E-01  0.117E-01  0.371E-02  0.370E-02
   2.864  0.652E-02  0.474E-02  0.889E-03  0.887E-03
   2.964  0.191E-02  0.157E-02  0.168E-03  0.168E-03
   3.064  0.464E-03  0.414E-03  0.252E-04  0.251E-04
   3.164  0.917E-04  0.858E-04  0.295E-05  0.294E-05
   3.264  0.144E-04  0.139E-04  0.272E-06  0.271E-06
   3.364  0.178E-05  0.174E-05  0.196E-07  0.195E-07
   3.464  0.171E-06  0.169E-06  0.111E-08  0.110E-08
