# E (eV)   ldos(E)   pdos(E)    pdos(E)    pdos(E)   
 -16.436  0.503E-07  0.434E-07  0.299E-08  0.394E-08
 -16.336  0.455E-06  0.387E-06  0.293E-07  0.391E-07
 -16.236  0.320E-05  0.267E-05  0.224E-06  0.304E-06
 -16.136  0.175E-04  0.143E-04  0.135E-05  0.186E-05
 -16.036  0.751E-04  0.597E-04  0.640E-05  0.903E-05
 -15.936  0.255E-03  0.196E-03  0.242E-04  0.350E-04
 -15.836  0.693E-03  0.509E-03  0.736E-04  0.110E-03
 -15.736  0.152E-02  0.106E-02  0.182E-03  0.281E-03
 -15.636  0.277E-02  0.180E-02  0.374E-03  0.597E-03
 -15.536  0.424E-02  0.252E-02  0.652E-03  0.107E-02
 -15.436  0.561E-02  0.298E-02  0.999E-03  0.163E-02
 -15.336  0.666E-02  0.306E-02  0.140E-02  0.220E-02
 -15.236  0.737E-02  0.283E-02  0.186E-02  0.267E-02
 -15.136  0.795E-02  0.251E-02  0.240E-02  0.304E-02
 -15.036  0.864E-02  0.232E-02  0.298E-02  0.334E-02
 -14.936  0.954E-02  0.237E-02  0.356E-02  0.360E-02
 -14.836  0.106E-01  0.264E-02  0.407E-02  0.386E-02
 -14.736  0.117E-01  0.307E-02  0.444E-02  0.416E-02
 -14.636  0.129E-01  0.359E-02  0.473E-02  0.457E-02
 -14.536  0.144E-01  0.421E-02  0.501E-02  0.520E-02
 -14.436  0.163E-01  0.488E-02  0.537E-02  0.607E-02
 -14.336  0.184E-01  0.554E-02  0.586E-02  0.703E-02
 -14.236  0.206E-01  0.616E-02  0.656E-02  0.783E-02
 -14.136  0.226E-01  0.679E-02  0.750E-02  0.828E-02
 -14.036  0.244E-01  0.747E-02  0.860E-02  0.837E-02
 -13.936  0.260E-01  0.818E-02  0.954E-02  0.827E-02
 -13.836  0.270E-01  0.891E-02  0.100E-01  0.814E-02
 -13.736  0.274E-01  0.963E-02  0.982E-02  0.799E-02
 -13.636  0.269E-01  0.102E-01  0.904E-02  0.773E-02
 -13.536  0.252E-01  0.101E-01  0.782E-02  0.719E-02
 -13.436  0.220E-01  0.930E-02  0.636E-02  0.630E-02
 -13.336  0.177E-01  0.769E-02  0.487E-02  0.511E-02
 -13.236  0.129E-01  0.569E-02  0.348E-02  0.373E-02
 -13.136  0.842E-02  0.375E-02  0.227E-02  0.240E-02
 -13.036  0.482E-02  0.217E-02  0.132E-02  0.133E-02
 -12.936  0.237E-02  0.109E-02  0.656E-03  0.624E-03
 -12.836  0.986E-03  0.467E-03  0.273E-03  0.246E-03
 -12.736  0.341E-03  0.168E-03  0.927E-04  0.808E-04
 -12.636  0.969E-04  0.496E-04  0.254E-04  0.219E-04
 -12.536  0.223E-04  0.119E-04  0.559E-05  0.482E-05
 -12.436  0.413E-05  0.230E-05  0.977E-06  0.860E-06
 -12.336  0.611E-06  0.352E-06  0.135E-06  0.123E-06
 -12.236  0.715E-07  0.427E-07  0.148E-07  0.139E-07
 -12.136  0.660E-08  0.407E-08  0.128E-08  0.125E-08
 -12.036  0.478E-09  0.304E-09  0.865E-10  0.877E-10
 -11.936  0.270E-10  0.176E-10  0.458E-11  0.482E-11
 -11.836  0.119E-11  0.793E-12  0.189E-12  0.206E-12
 -11.736  0.403E-13  0.275E-13  0.599E-14  0.677E-14
 -11.636  0.972E-15  0.686E-15  0.129E-15  0.157E-15
 -11.536  0.000E+00  0.000E+00  0.000E+00  0.000E+00
 -11.436  0.000E+00  0.000E+00  0.000E+00  0.000E+00
 -11.336  0.000E+00  0.000E+00  0.000E+00  0.000E+00
 -11.236  0.000E+00  0.000E+00  0.000E+00  0.000E+00
 -11.136  0.000E+00  0.000E+00  0.000E+00  0.000E+00
 -11.036  0.000E+00  0.000E+00  0.000E+00  0.000E+00
 -10.936  0.000E+00  0.000E+00  0.000E+00  0.000E+00
 -10.836  0.000E+00  0.000E+00  0.000E+00  0.000E+00
 -10.736  0.000E+00  0.000E+00  0.000E+00  0.000E+00
 -10.636  0.000E+00  0.000E+00  0.000E+00  0.000E+00
 -10.536  0.000E+00  0.000E+00  0.000E+00  0.000E+00
 -10.436  0.000E+00  0.000E+00  0.000E+00  0.000E+00
 -10.336  0.000E+00  0.000E+00  0.000E+00  0.000E+00
 -10.236  0.000E+00  0.000E+00  0.000E+00  0.000E+00
 -10.136  0.000E+00  0.000E+00  0.000E+00  0.000E+00
 -10.036  0.000E+00  0.000E+00  0.000E+00  0.000E+00
  -9.936  0.000E+00  0.000E+00  0.000E+00  0.000E+00
  -9.836  0.000E+00  0.000E+00  0.000E+00  0.000E+00
  -9.736  0.000E+00  0.000E+00  0.000E+00  0.000E+00
  -9.636  0.000E+00  0.000E+00  0.000E+00  0.000E+00
  -9.536  0.000E+00  0.000E+00  0.000E+00  0.000E+00
  -9.436  0.000E+00  0.000E+00  0.000E+00  0.000E+00
  -9.336  0.000E+00  0.000E+00  0.000E+00  0.000E+00
  -9.236  0.000E+00  0.000E+00  0.000E+00  0.000E+00
  -9.136  0.000E+00  0.000E+00  0.000E+00  0.000E+00
  -9.036  0.000E+00  0.000E+00  0.000E+00  0.000E+00
  -8.936  0.000E+00  0.000E+00  0.000E+00  0.000E+00
  -8.836  0.000E+00  0.000E+00  0.000E+00  0.000E+00
  -8.736  0.996E-13  0.351E-15  0.314E-13  0.679E-13
  -8.636  0.453E-11  0.148E-13  0.135E-11  0.316E-11
  -8.536  0.139E-09  0.445E-12  0.413E-10  0.978E-10
  -8.436  0.329E-08  0.103E-10  0.963E-09  0.232E-08
  -8.336  0.596E-07  0.183E-09  0.173E-07  0.421E-07
  -8.236  0.829E-06  0.250E-08  0.238E-06  0.589E-06
  -8.136  0.888E-05  0.265E-07  0.252E-05  0.633E-05
  -8.036  0.732E-04  0.220E-06  0.206E-04  0.524E-04
  -7.936  0.466E-03  0.146E-05  0.130E-03  0.335E-03
  -7.836  0.230E-02  0.798E-05  0.641E-03  0.165E-02
  -7.736  0.882E-02  0.380E-04  0.248E-02  0.631E-02
  -7.636  0.266E-01  0.166E-03  0.767E-02  0.188E-01
  -7.536  0.640E-01  0.672E-03  0.193E-01  0.440E-01
  -7.436  0.126E+00  0.247E-02  0.409E-01  0.823E-01
  -7.336  0.209E+00  0.793E-02  0.752E-01  0.126E+00
  -7.236  0.311E+00  0.217E-01  0.123E+00  0.166E+00
  -7.136  0.433E+00  0.499E-01  0.183E+00  0.200E+00
  -7.036  0.581E+00  0.974E-01  0.250E+00  0.233E+00
  -6.936  0.749E+00  0.162E+00  0.316E+00  0.270E+00
  -6.836  0.907E+00  0.233E+00  0.367E+00  0.307E+00
  -6.736  0.101E+01  0.291E+00  0.390E+00  0.331E+00
  -6.636  0.104E+01  0.323E+00  0.379E+00  0.332E+00
  -6.536  0.978E+00  0.323E+00  0.342E+00  0.312E+00
  -6.436  0.867E+00  0.295E+00  0.292E+00  0.280E+00
  -6.336  0.731E+00  0.248E+00  0.240E+00  0.243E+00
  -6.236  0.596E+00  0.196E+00  0.193E+00  0.207E+00
  -6.136  0.483E+00  0.150E+00  0.160E+00  0.172E+00
  -6.036  0.402E+00  0.117E+00  0.142E+00  0.143E+00
  -5.936  0.349E+00  0.961E-01  0.133E+00  0.120E+00
  -5.836  0.315E+00  0.861E-01  0.125E+00  0.104E+00
  -5.736  0.304E+00  0.906E-01  0.117E+00  0.964E-01
  -5.636  0.329E+00  0.117E+00  0.113E+00  0.988E-01
  -5.536  0.400E+00  0.166E+00  0.121E+00  0.112E+00
  -5.436  0.503E+00  0.229E+00  0.139E+00  0.135E+00
  -5.336  0.604E+00  0.286E+00  0.159E+00  0.159E+00
  -5.236  0.669E+00  0.316E+00  0.173E+00  0.180E+00
  -5.136  0.685E+00  0.314E+00  0.179E+00  0.192E+00
  -5.036  0.669E+00  0.292E+00  0.181E+00  0.196E+00
  -4.936  0.658E+00  0.270E+00  0.190E+00  0.199E+00
  -4.836  0.678E+00  0.258E+00  0.212E+00  0.208E+00
  -4.736  0.733E+00  0.259E+00  0.247E+00  0.227E+00
  -4.636  0.800E+00  0.266E+00  0.284E+00  0.250E+00
  -4.536  0.845E+00  0.269E+00  0.306E+00  0.270E+00
  -4.436  0.838E+00  0.258E+00  0.300E+00  0.281E+00
  -4.336  0.782E+00  0.232E+00  0.268E+00  0.282E+00
  -4.236  0.701E+00  0.198E+00  0.227E+00  0.276E+00
  -4.136  0.625E+00  0.166E+00  0.194E+00  0.265E+00
  -4.036  0.564E+00  0.143E+00  0.176E+00  0.245E+00
  -3.936  0.520E+00  0.133E+00  0.170E+00  0.217E+00
  -3.836  0.498E+00  0.141E+00  0.172E+00  0.186E+00
  -3.736  0.508E+00  0.166E+00  0.177E+00  0.165E+00
  -3.636  0.550E+00  0.204E+00  0.184E+00  0.163E+00
  -3.536  0.613E+00  0.242E+00  0.192E+00  0.180E+00
  -3.436  0.687E+00  0.275E+00  0.203E+00  0.209E+00
  -3.336  0.768E+00  0.308E+00  0.220E+00  0.240E+00
  -3.236  0.849E+00  0.346E+00  0.239E+00  0.264E+00
  -3.136  0.910E+00  0.380E+00  0.256E+00  0.274E+00
  -3.036  0.931E+00  0.397E+00  0.264E+00  0.270E+00
  -2.936  0.905E+00  0.388E+00  0.262E+00  0.254E+00
  -2.836  0.849E+00  0.361E+00  0.254E+00  0.233E+00
  -2.736  0.780E+00  0.327E+00  0.242E+00  0.210E+00
  -2.636  0.709E+00  0.296E+00  0.224E+00  0.189E+00
  -2.536  0.637E+00  0.267E+00  0.199E+00  0.170E+00
  -2.436  0.568E+00  0.242E+00  0.171E+00  0.154E+00
  -2.336  0.512E+00  0.220E+00  0.149E+00  0.143E+00
  -2.236  0.476E+00  0.203E+00  0.139E+00  0.135E+00
  -2.136  0.461E+00  0.192E+00  0.139E+00  0.130E+00
  -2.036  0.456E+00  0.186E+00  0.142E+00  0.128E+00
  -1.936  0.446E+00  0.181E+00  0.141E+00  0.124E+00
  -1.836  0.421E+00  0.172E+00  0.132E+00  0.117E+00
  -1.736  0.381E+00  0.160E+00  0.117E+00  0.105E+00
  -1.636  0.335E+00  0.145E+00  0.100E+00  0.900E-01
  -1.536  0.287E+00  0.127E+00  0.847E-01  0.755E-01
  -1.436  0.239E+00  0.106E+00  0.708E-01  0.625E-01
  -1.336  0.189E+00  0.820E-01  0.568E-01  0.502E-01
  -1.236  0.138E+00  0.580E-01  0.418E-01  0.378E-01
  -1.136  0.895E-01  0.370E-01  0.268E-01  0.256E-01
  -1.036  0.504E-01  0.209E-01  0.145E-01  0.150E-01
  -0.936  0.239E-01  0.101E-01  0.638E-02  0.740E-02
  -0.836  0.932E-02  0.408E-02  0.226E-02  0.298E-02
  -0.736  0.294E-02  0.134E-02  0.635E-03  0.971E-03
  -0.636  0.749E-03  0.350E-03  0.142E-03  0.257E-03
  -0.536  0.217E-03  0.851E-04  0.365E-04  0.955E-04
  -0.436  0.470E-03  0.961E-04  0.806E-04  0.293E-03
  -0.336  0.223E-02  0.415E-03  0.385E-03  0.143E-02
  -0.236  0.853E-02  0.156E-02  0.147E-02  0.550E-02
  -0.136  0.253E-01  0.453E-02  0.436E-02  0.164E-01
  -0.036  0.581E-01  0.103E-01  0.995E-02  0.379E-01
   0.064  0.104E+00  0.181E-01  0.176E-01  0.683E-01
   0.164  0.145E+00  0.249E-01  0.242E-01  0.959E-01
   0.264  0.159E+00  0.271E-01  0.260E-01  0.106E+00
   0.364  0.137E+00  0.234E-01  0.219E-01  0.916E-01
   0.464  0.945E-01  0.163E-01  0.148E-01  0.633E-01
   0.564  0.571E-01  0.103E-01  0.962E-02  0.372E-01
   0.664  0.447E-01  0.907E-02  0.103E-01  0.253E-01
   0.764  0.673E-01  0.156E-01  0.201E-01  0.316E-01
   0.864  0.126E+00  0.315E-01  0.408E-01  0.535E-01
   0.964  0.210E+00  0.562E-01  0.712E-01  0.829E-01
   1.064  0.303E+00  0.860E-01  0.107E+00  0.110E+00
   1.164  0.390E+00  0.116E+00  0.146E+00  0.128E+00
   1.264  0.469E+00  0.144E+00  0.185E+00  0.140E+00
   1.364  0.541E+00  0.168E+00  0.218E+00  0.156E+00
   1.464  0.606E+00  0.184E+00  0.239E+00  0.183E+00
   1.564  0.658E+00  0.190E+00  0.248E+00  0.221E+00
   1.664  0.696E+00  0.186E+00  0.249E+00  0.261E+00
   1.764  0.717E+00  0.178E+00  0.250E+00  0.289E+00
   1.864  0.715E+00  0.168E+00  0.251E+00  0.297E+00
   1.964  0.688E+00  0.156E+00  0.247E+00  0.284E+00
   2.064  0.633E+00  0.142E+00  0.233E+00  0.258E+00
   2.164  0.548E+00  0.123E+00  0.203E+00  0.222E+00
   2.264  0.436E+00  0.100E+00  0.160E+00  0.176E+00
   2.364  0.307E+00  0.735E-01  0.110E+00  0.124E+00
   2.464  0.187E+00  0.480E-01  0.642E-01  0.748E-01
   2.564  0.962E-01  0.275E-01  0.310E-01  0.377E-01
   2.664  0.414E-01  0.137E-01  0.122E-01  0.156E-01
   2.764  0.149E-01  0.584E-02  0.387E-02  0.524E-02
   2.864  0.452E-02  0.211E-02  0.981E-03  0.143E-02
   2.964  0.115E-02  0.631E-03  0.199E-03  0.318E-03
   3.064  0.243E-03  0.153E-03  0.322E-04  0.578E-04
   3.164  0.426E-04  0.298E-04  0.418E-05  0.860E-05
   3.264  0.605E-05  0.456E-05  0.441E-06  0.105E-05
   3.364  0.690E-06  0.547E-06  0.381E-07  0.105E-06
   3.464  0.622E-07  0.510E-07  0.271E-08  0.851E-08
