# E (eV)   ldos(E)   pdos(E)    pdos(E)    pdos(E)   
 -16.436  0.310E-07  0.231E-07  0.392E-08  0.392E-08
 -16.336  0.283E-06  0.205E-06  0.391E-07  0.391E-07
 -16.236  0.201E-05  0.140E-05  0.305E-06  0.305E-06
 -16.136  0.112E-04  0.746E-05  0.187E-05  0.187E-05
 -16.036  0.491E-04  0.308E-04  0.912E-05  0.912E-05
 -15.936  0.171E-03  0.997E-04  0.356E-04  0.356E-04
 -15.836  0.478E-03  0.254E-03  0.112E-03  0.112E-03
 -15.736  0.109E-02  0.515E-03  0.289E-03  0.289E-03
 -15.636  0.208E-02  0.845E-03  0.616E-03  0.616E-03
 -15.536  0.335E-02  0.116E-02  0.109E-02  0.109E-02
 -15.436  0.470E-02  0.140E-02  0.165E-02  0.165E-02
 -15.336  0.588E-02  0.160E-02  0.214E-02  0.214E-02
 -15.236  0.677E-02  0.181E-02  0.248E-02  0.248E-02
 -15.136  0.743E-02  0.200E-02  0.272E-02  0.272E-02
 -15.036  0.805E-02  0.208E-02  0.298E-02  0.298E-02
 -14.936  0.883E-02  0.202E-02  0.340E-02  0.340E-02
 -14.836  0.994E-02  0.192E-02  0.401E-02  0.401E-02
 -14.736  0.114E-01  0.193E-02  0.472E-02  0.472E-02
 -14.636  0.131E-01  0.220E-02  0.543E-02  0.543E-02
 -14.536  0.148E-01  0.276E-02  0.602E-02  0.602E-02
 -14.436  0.165E-01  0.355E-02  0.648E-02  0.648E-02
 -14.336  0.179E-01  0.438E-02  0.675E-02  0.675E-02
 -14.236  0.187E-01  0.511E-02  0.677E-02  0.677E-02
 -14.136  0.189E-01  0.561E-02  0.664E-02  0.664E-02
 -14.036  0.191E-01  0.586E-02  0.663E-02  0.663E-02
 -13.936  0.201E-01  0.602E-02  0.702E-02  0.702E-02
 -13.836  0.220E-01  0.646E-02  0.776E-02  0.776E-02
 -13.736  0.244E-01  0.758E-02  0.841E-02  0.841E-02
 -13.636  0.261E-01  0.938E-02  0.838E-02  0.838E-02
 -13.536  0.263E-01  0.113E-01  0.747E-02  0.747E-02
 -13.436  0.245E-01  0.125E-01  0.597E-02  0.597E-02
 -13.336  0.209E-01  0.120E-01  0.443E-02  0.443E-02
 -13.236  0.161E-01  0.979E-02  0.317E-02  0.317E-02
 -13.136  0.109E-01  0.659E-02  0.215E-02  0.216E-02
 -13.036  0.627E-02  0.362E-02  0.132E-02  0.133E-02
 -12.936  0.299E-02  0.160E-02  0.693E-03  0.694E-03
 -12.836  0.116E-02  0.568E-03  0.296E-03  0.296E-03
 -12.736  0.362E-03  0.160E-03  0.101E-03  0.101E-03
 -12.636  0.902E-04  0.358E-04  0.272E-04  0.272E-04
 -12.536  0.178E-04  0.630E-05  0.575E-05  0.576E-05
 -12.436  0.278E-05  0.873E-06  0.954E-06  0.955E-06
 -12.336  0.343E-06  0.950E-07  0.124E-06  0.124E-06
 -12.236  0.334E-07  0.811E-08  0.126E-07  0.126E-07
 -12.136  0.256E-08  0.544E-09  0.101E-08  0.101E-08
 -12.036  0.155E-09  0.287E-10  0.634E-10  0.634E-10
 -11.936  0.743E-11  0.119E-11  0.312E-11  0.312E-11
 -11.836  0.279E-12  0.384E-13  0.120E-12  0.121E-12
 -11.736  0.780E-14  0.717E-15  0.354E-14  0.354E-14
 -11.636  0.124E-15  0.554E-17  0.592E-16  0.593E-16
 -11.536  0.000E+00  0.000E+00  0.000E+00  0.000E+00
 -11.436  0.000E+00  0.000E+00  0.000E+00  0.000E+00
 -11.336  0.000E+00  0.000E+00  0.000E+00  0.000E+00
 -11.236  0.000E+00  0.000E+00  0.000E+00  0.000E+00
 -11.136  0.000E+00  0.000E+00  0.000E+00  0.000E+00
 -11.036  0.000E+00  0.000E+00  0.000E+00  0.000E+00
 -10.936  0.000E+00  0.000E+00  0.000E+00  0.000E+00
 -10.836  0.000E+00  0.000E+00  0.000E+00  0.000E+00
 -10.736  0.000E+00  0.000E+00  0.000E+00  0.000E+00
 -10.636  0.000E+00  0.000E+00  0.000E+00  0.000E+00
 -10.536  0.000E+00  0.000E+00  0.000E+00  0.000E+00
 -10.436  0.000E+00  0.000E+00  0.000E+00  0.000E+00
 -10.336  0.000E+00  0.000E+00  0.000E+00  0.000E+00
 -10.236  0.000E+00  0.000E+00  0.000E+00  0.000E+00
 -10.136  0.000E+00  0.000E+00  0.000E+00  0.000E+00
 -10.036  0.000E+00  0.000E+00  0.000E+00  0.000E+00
  -9.936  0.000E+00  0.000E+00  0.000E+00  0.000E+00
  -9.836  0.000E+00  0.000E+00  0.000E+00  0.000E+00
  -9.736  0.000E+00  0.000E+00  0.000E+00  0.000E+00
  -9.636  0.000E+00  0.000E+00  0.000E+00  0.000E+00
  -9.536  0.000E+00  0.000E+00  0.000E+00  0.000E+00
  -9.436  0.000E+00  0.000E+00  0.000E+00  0.000E+00
  -9.336  0.000E+00  0.000E+00  0.000E+00  0.000E+00
  -9.236  0.000E+00  0.000E+00  0.000E+00  0.000E+00
  -9.136  0.000E+00  0.000E+00  0.000E+00  0.000E+00
  -9.036  0.000E+00  0.000E+00  0.000E+00  0.000E+00
  -8.936  0.000E+00  0.000E+00  0.000E+00  0.000E+00
  -8.836  0.000E+00  0.000E+00  0.000E+00  0.000E+00
  -8.736  0.557E-13  0.221E-15  0.278E-13  0.277E-13
  -8.636  0.240E-11  0.970E-14  0.119E-11  0.119E-11
  -8.536  0.730E-10  0.298E-12  0.364E-10  0.363E-10
  -8.436  0.170E-08  0.701E-11  0.848E-09  0.848E-09
  -8.336  0.305E-07  0.127E-09  0.152E-07  0.152E-07
  -8.236  0.420E-06  0.178E-08  0.209E-06  0.209E-06
  -8.136  0.444E-05  0.193E-07  0.221E-05  0.221E-05
  -8.036  0.363E-04  0.164E-06  0.181E-04  0.180E-04
  -7.936  0.229E-03  0.112E-05  0.114E-03  0.114E-03
  -7.836  0.113E-02  0.625E-05  0.562E-03  0.562E-03
  -7.736  0.439E-02  0.300E-04  0.218E-02  0.218E-02
  -7.636  0.136E-01  0.129E-03  0.675E-02  0.675E-02
  -7.536  0.347E-01  0.507E-03  0.171E-01  0.171E-01
  -7.436  0.747E-01  0.182E-02  0.364E-01  0.365E-01
  -7.336  0.141E+00  0.577E-02  0.677E-01  0.677E-01
  -7.236  0.242E+00  0.159E-01  0.113E+00  0.113E+00
  -7.136  0.382E+00  0.372E-01  0.172E+00  0.172E+00
  -7.036  0.559E+00  0.741E-01  0.242E+00  0.242E+00
  -6.936  0.753E+00  0.126E+00  0.314E+00  0.314E+00
  -6.836  0.923E+00  0.182E+00  0.370E+00  0.370E+00
  -6.736  0.102E+01  0.228E+00  0.395E+00  0.395E+00
  -6.636  0.101E+01  0.250E+00  0.382E+00  0.382E+00
  -6.536  0.925E+00  0.244E+00  0.341E+00  0.340E+00
  -6.436  0.786E+00  0.218E+00  0.284E+00  0.284E+00
  -6.336  0.625E+00  0.180E+00  0.222E+00  0.222E+00
  -6.236  0.463E+00  0.137E+00  0.163E+00  0.163E+00
  -6.136  0.324E+00  0.954E-01  0.114E+00  0.114E+00
  -6.036  0.229E+00  0.634E-01  0.827E-01  0.827E-01
  -5.936  0.185E+00  0.468E-01  0.689E-01  0.688E-01
  -5.836  0.184E+00  0.452E-01  0.695E-01  0.695E-01
  -5.736  0.218E+00  0.549E-01  0.817E-01  0.817E-01
  -5.636  0.280E+00  0.751E-01  0.102E+00  0.102E+00
  -5.536  0.360E+00  0.107E+00  0.126E+00  0.126E+00
  -5.436  0.443E+00  0.148E+00  0.148E+00  0.148E+00
  -5.336  0.515E+00  0.188E+00  0.164E+00  0.163E+00
  -5.236  0.563E+00  0.216E+00  0.174E+00  0.174E+00
  -5.136  0.584E+00  0.227E+00  0.179E+00  0.179E+00
  -5.036  0.584E+00  0.226E+00  0.179E+00  0.179E+00
  -4.936  0.570E+00  0.219E+00  0.175E+00  0.175E+00
  -4.836  0.551E+00  0.210E+00  0.171E+00  0.171E+00
  -4.736  0.540E+00  0.201E+00  0.169E+00  0.169E+00
  -4.636  0.554E+00  0.200E+00  0.177E+00  0.177E+00
  -4.536  0.603E+00  0.214E+00  0.194E+00  0.194E+00
  -4.436  0.684E+00  0.247E+00  0.219E+00  0.219E+00
  -4.336  0.779E+00  0.289E+00  0.245E+00  0.245E+00
  -4.236  0.858E+00  0.321E+00  0.268E+00  0.268E+00
  -4.136  0.895E+00  0.329E+00  0.283E+00  0.283E+00
  -4.036  0.875E+00  0.314E+00  0.281E+00  0.281E+00
  -3.936  0.812E+00  0.290E+00  0.261E+00  0.261E+00
  -3.836  0.736E+00  0.272E+00  0.232E+00  0.232E+00
  -3.736  0.667E+00  0.262E+00  0.202E+00  0.202E+00
  -3.636  0.606E+00  0.252E+00  0.177E+00  0.177E+00
  -3.536  0.555E+00  0.233E+00  0.161E+00  0.161E+00
  -3.436  0.529E+00  0.207E+00  0.161E+00  0.161E+00
  -3.336  0.551E+00  0.185E+00  0.183E+00  0.183E+00
  -3.236  0.616E+00  0.175E+00  0.220E+00  0.220E+00
  -3.136  0.692E+00  0.175E+00  0.259E+00  0.259E+00
  -3.036  0.743E+00  0.177E+00  0.283E+00  0.283E+00
  -2.936  0.761E+00  0.176E+00  0.292E+00  0.292E+00
  -2.836  0.759E+00  0.176E+00  0.291E+00  0.291E+00
  -2.736  0.745E+00  0.179E+00  0.283E+00  0.283E+00
  -2.636  0.717E+00  0.187E+00  0.265E+00  0.265E+00
  -2.536  0.676E+00  0.200E+00  0.238E+00  0.238E+00
  -2.436  0.644E+00  0.221E+00  0.212E+00  0.212E+00
  -2.336  0.650E+00  0.254E+00  0.198E+00  0.198E+00
  -2.236  0.697E+00  0.299E+00  0.199E+00  0.199E+00
  -2.136  0.755E+00  0.342E+00  0.206E+00  0.206E+00
  -2.036  0.779E+00  0.366E+00  0.206E+00  0.206E+00
  -1.936  0.741E+00  0.358E+00  0.192E+00  0.192E+00
  -1.836  0.642E+00  0.314E+00  0.164E+00  0.164E+00
  -1.736  0.509E+00  0.247E+00  0.131E+00  0.131E+00
  -1.636  0.377E+00  0.175E+00  0.101E+00  0.101E+00
  -1.536  0.268E+00  0.115E+00  0.765E-01  0.765E-01
  -1.436  0.187E+00  0.727E-01  0.573E-01  0.573E-01
  -1.336  0.130E+00  0.472E-01  0.414E-01  0.414E-01
  -1.236  0.871E-01  0.318E-01  0.277E-01  0.277E-01
  -1.136  0.542E-01  0.212E-01  0.165E-01  0.165E-01
  -1.036  0.298E-01  0.129E-01  0.846E-02  0.846E-02
  -0.936  0.140E-01  0.676E-02  0.362E-02  0.362E-02
  -0.836  0.544E-02  0.291E-02  0.127E-02  0.127E-02
  -0.736  0.172E-02  0.100E-02  0.356E-03  0.356E-03
  -0.636  0.437E-03  0.277E-03  0.803E-04  0.803E-04
  -0.536  0.120E-03  0.755E-04  0.221E-04  0.221E-04
  -0.436  0.223E-03  0.114E-03  0.546E-04  0.546E-04
  -0.336  0.103E-02  0.504E-03  0.264E-03  0.264E-03
  -0.236  0.390E-02  0.186E-02  0.102E-02  0.102E-02
  -0.136  0.114E-01  0.528E-02  0.306E-02  0.306E-02
  -0.036  0.258E-01  0.115E-01  0.714E-02  0.713E-02
   0.064  0.453E-01  0.194E-01  0.130E-01  0.130E-01
   0.164  0.619E-01  0.251E-01  0.184E-01  0.184E-01
   0.264  0.662E-01  0.251E-01  0.206E-01  0.206E-01
   0.364  0.557E-01  0.195E-01  0.181E-01  0.181E-01
   0.464  0.372E-01  0.119E-01  0.127E-01  0.127E-01
   0.564  0.209E-01  0.622E-02  0.732E-02  0.732E-02
   0.664  0.133E-01  0.435E-02  0.445E-02  0.446E-02
   0.764  0.163E-01  0.630E-02  0.501E-02  0.501E-02
   0.864  0.295E-01  0.117E-01  0.889E-02  0.889E-02
   0.964  0.511E-01  0.209E-01  0.151E-01  0.151E-01
   1.064  0.794E-01  0.358E-01  0.218E-01  0.218E-01
   1.164  0.115E+00  0.593E-01  0.277E-01  0.277E-01
   1.264  0.158E+00  0.904E-01  0.337E-01  0.337E-01
   1.364  0.205E+00  0.120E+00  0.429E-01  0.428E-01
   1.464  0.255E+00  0.134E+00  0.602E-01  0.602E-01
   1.564  0.311E+00  0.131E+00  0.896E-01  0.895E-01
   1.664  0.381E+00  0.122E+00  0.130E+00  0.130E+00
   1.764  0.461E+00  0.118E+00  0.172E+00  0.171E+00
   1.864  0.532E+00  0.123E+00  0.205E+00  0.204E+00
   1.964  0.581E+00  0.131E+00  0.225E+00  0.225E+00
   2.064  0.609E+00  0.137E+00  0.236E+00  0.235E+00
   2.164  0.604E+00  0.135E+00  0.235E+00  0.234E+00
   2.264  0.545E+00  0.123E+00  0.211E+00  0.210E+00
   2.364  0.427E+00  0.988E-01  0.164E+00  0.164E+00
   2.464  0.283E+00  0.687E-01  0.107E+00  0.107E+00
   2.564  0.156E+00  0.404E-01  0.575E-01  0.582E-01
   2.664  0.718E-01  0.199E-01  0.255E-01  0.264E-01
   2.764  0.277E-01  0.818E-02  0.937E-02  0.101E-01
   2.864  0.899E-02  0.279E-02  0.287E-02  0.332E-02
   2.964  0.245E-02  0.788E-03  0.735E-03  0.929E-03
   3.064  0.557E-03  0.183E-03  0.156E-03  0.219E-03
   3.164  0.104E-03  0.343E-04  0.269E-04  0.426E-04
   3.264  0.156E-04  0.517E-05  0.376E-05  0.672E-05
   3.364  0.187E-05  0.617E-06  0.416E-06  0.841E-06
   3.464  0.177E-06  0.577E-07  0.362E-07  0.827E-07
