# E (eV)   ldos(E)   pdos(E)    pdos(E)    pdos(E)   
 -16.436  0.513E-07  0.452E-07  0.315E-08  0.299E-08
 -16.336  0.462E-06  0.402E-06  0.311E-07  0.285E-07
 -16.236  0.322E-05  0.277E-05  0.240E-06  0.211E-06
 -16.136  0.175E-04  0.148E-04  0.146E-05  0.123E-05
 -16.036  0.747E-04  0.620E-04  0.703E-05  0.569E-05
 -15.936  0.251E-03  0.203E-03  0.271E-04  0.209E-04
 -15.836  0.673E-03  0.527E-03  0.842E-04  0.621E-04
 -15.736  0.146E-02  0.110E-02  0.214E-03  0.150E-03
 -15.636  0.261E-02  0.185E-02  0.452E-03  0.303E-03
 -15.536  0.392E-02  0.260E-02  0.802E-03  0.517E-03
 -15.436  0.510E-02  0.311E-02  0.122E-02  0.769E-03
 -15.336  0.592E-02  0.326E-02  0.163E-02  0.103E-02
 -15.236  0.637E-02  0.313E-02  0.197E-02  0.128E-02
 -15.136  0.664E-02  0.288E-02  0.223E-02  0.153E-02
 -15.036  0.691E-02  0.269E-02  0.246E-02  0.176E-02
 -14.936  0.732E-02  0.266E-02  0.268E-02  0.198E-02
 -14.836  0.792E-02  0.282E-02  0.291E-02  0.218E-02
 -14.736  0.871E-02  0.315E-02  0.318E-02  0.238E-02
 -14.636  0.977E-02  0.363E-02  0.355E-02  0.258E-02
 -14.536  0.112E-01  0.428E-02  0.412E-02  0.283E-02
 -14.436  0.131E-01  0.506E-02  0.491E-02  0.314E-02
 -14.336  0.153E-01  0.590E-02  0.585E-02  0.351E-02
 -14.236  0.174E-01  0.670E-02  0.673E-02  0.394E-02
 -14.136  0.192E-01  0.734E-02  0.745E-02  0.443E-02
 -14.036  0.208E-01  0.778E-02  0.805E-02  0.496E-02
 -13.936  0.221E-01  0.804E-02  0.858E-02  0.551E-02
 -13.836  0.233E-01  0.829E-02  0.898E-02  0.603E-02
 -13.736  0.243E-01  0.864E-02  0.916E-02  0.648E-02
 -13.636  0.247E-01  0.899E-02  0.901E-02  0.674E-02
 -13.536  0.243E-01  0.913E-02  0.847E-02  0.671E-02
 -13.436  0.227E-01  0.889E-02  0.750E-02  0.634E-02
 -13.336  0.201E-01  0.825E-02  0.618E-02  0.565E-02
 -13.236  0.165E-01  0.719E-02  0.465E-02  0.468E-02
 -13.136  0.123E-01  0.572E-02  0.314E-02  0.348E-02
 -13.036  0.814E-02  0.403E-02  0.186E-02  0.225E-02
 -12.936  0.462E-02  0.243E-02  0.955E-03  0.123E-02
 -12.836  0.219E-02  0.122E-02  0.413E-03  0.558E-03
 -12.736  0.857E-03  0.503E-03  0.148E-03  0.206E-03
 -12.636  0.271E-03  0.167E-03  0.431E-04  0.610E-04
 -12.536  0.689E-04  0.444E-04  0.101E-04  0.144E-04
 -12.436  0.139E-04  0.931E-05  0.190E-05  0.271E-05
 -12.336  0.222E-05  0.153E-05  0.280E-06  0.403E-06
 -12.236  0.277E-06  0.197E-06  0.327E-07  0.471E-07
 -12.136  0.270E-07  0.198E-07  0.298E-08  0.431E-08
 -12.036  0.205E-08  0.153E-08  0.212E-09  0.309E-09
 -11.936  0.121E-09  0.918E-10  0.117E-10  0.172E-10
 -11.836  0.549E-11  0.424E-11  0.505E-12  0.746E-12
 -11.736  0.192E-12  0.150E-12  0.167E-13  0.249E-13
 -11.636  0.496E-14  0.400E-14  0.386E-15  0.581E-15
 -11.536  0.000E+00  0.000E+00  0.000E+00  0.000E+00
 -11.436  0.000E+00  0.000E+00  0.000E+00  0.000E+00
 -11.336  0.000E+00  0.000E+00  0.000E+00  0.000E+00
 -11.236  0.000E+00  0.000E+00  0.000E+00  0.000E+00
 -11.136  0.000E+00  0.000E+00  0.000E+00  0.000E+00
 -11.036  0.000E+00  0.000E+00  0.000E+00  0.000E+00
 -10.936  0.000E+00  0.000E+00  0.000E+00  0.000E+00
 -10.836  0.000E+00  0.000E+00  0.000E+00  0.000E+00
 -10.736  0.000E+00  0.000E+00  0.000E+00  0.000E+00
 -10.636  0.000E+00  0.000E+00  0.000E+00  0.000E+00
 -10.536  0.000E+00  0.000E+00  0.000E+00  0.000E+00
 -10.436  0.000E+00  0.000E+00  0.000E+00  0.000E+00
 -10.336  0.000E+00  0.000E+00  0.000E+00  0.000E+00
 -10.236  0.000E+00  0.000E+00  0.000E+00  0.000E+00
 -10.136  0.000E+00  0.000E+00  0.000E+00  0.000E+00
 -10.036  0.000E+00  0.000E+00  0.000E+00  0.000E+00
  -9.936  0.000E+00  0.000E+00  0.000E+00  0.000E+00
  -9.836  0.000E+00  0.000E+00  0.000E+00  0.000E+00
  -9.736  0.000E+00  0.000E+00  0.000E+00  0.000E+00
  -9.636  0.000E+00  0.000E+00  0.000E+00  0.000E+00
  -9.536  0.000E+00  0.000E+00  0.000E+00  0.000E+00
  -9.436  0.000E+00  0.000E+00  0.000E+00  0.000E+00
  -9.336  0.000E+00  0.000E+00  0.000E+00  0.000E+00
  -9.236  0.000E+00  0.000E+00  0.000E+00  0.000E+00
  -9.136  0.000E+00  0.000E+00  0.000E+00  0.000E+00
  -9.036  0.000E+00  0.000E+00  0.000E+00  0.000E+00
  -8.936  0.000E+00  0.000E+00  0.000E+00  0.000E+00
  -8.836  0.000E+00  0.000E+00  0.000E+00  0.000E+00
  -8.736  0.649E-13  0.401E-15  0.376E-13  0.269E-13
  -8.636  0.299E-11  0.182E-13  0.174E-11  0.123E-11
  -8.536  0.920E-10  0.562E-12  0.537E-10  0.378E-10
  -8.436  0.217E-08  0.133E-10  0.127E-08  0.891E-09
  -8.336  0.395E-07  0.243E-09  0.231E-07  0.162E-07
  -8.236  0.550E-06  0.342E-08  0.322E-06  0.225E-06
  -8.136  0.590E-05  0.375E-07  0.346E-05  0.241E-05
  -8.036  0.488E-04  0.322E-06  0.286E-04  0.199E-04
  -7.936  0.311E-03  0.222E-05  0.182E-03  0.127E-03
  -7.836  0.153E-02  0.127E-04  0.897E-03  0.624E-03
  -7.736  0.589E-02  0.627E-04  0.343E-02  0.239E-02
  -7.636  0.177E-01  0.276E-03  0.102E-01  0.719E-02
  -7.536  0.423E-01  0.109E-02  0.241E-01  0.172E-01
  -7.436  0.824E-01  0.380E-02  0.454E-01  0.332E-01
  -7.336  0.136E+00  0.112E-01  0.707E-01  0.538E-01
  -7.236  0.199E+00  0.278E-01  0.950E-01  0.766E-01
  -7.136  0.275E+00  0.574E-01  0.117E+00  0.100E+00
  -7.036  0.368E+00  0.996E-01  0.143E+00  0.126E+00
  -6.936  0.480E+00  0.149E+00  0.178E+00  0.153E+00
  -6.836  0.606E+00  0.197E+00  0.226E+00  0.182E+00
  -6.736  0.735E+00  0.241E+00  0.282E+00  0.213E+00
  -6.636  0.844E+00  0.274E+00  0.328E+00  0.243E+00
  -6.536  0.900E+00  0.287E+00  0.346E+00  0.267E+00
  -6.436  0.876E+00  0.272E+00  0.329E+00  0.275E+00
  -6.336  0.785E+00  0.228E+00  0.289E+00  0.267E+00
  -6.236  0.678E+00  0.173E+00  0.252E+00  0.253E+00
  -6.136  0.605E+00  0.126E+00  0.233E+00  0.246E+00
  -6.036  0.575E+00  0.969E-01  0.231E+00  0.248E+00
  -5.936  0.557E+00  0.852E-01  0.227E+00  0.244E+00
  -5.836  0.522E+00  0.875E-01  0.209E+00  0.225E+00
  -5.736  0.482E+00  0.105E+00  0.183E+00  0.195E+00
  -5.636  0.472E+00  0.142E+00  0.161E+00  0.169E+00
  -5.536  0.508E+00  0.196E+00  0.152E+00  0.160E+00
  -5.436  0.575E+00  0.256E+00  0.153E+00  0.167E+00
  -5.336  0.639E+00  0.304E+00  0.157E+00  0.177E+00
  -5.236  0.676E+00  0.330E+00  0.164E+00  0.182E+00
  -5.136  0.690E+00  0.332E+00  0.177E+00  0.182E+00
  -5.036  0.701E+00  0.323E+00  0.197E+00  0.181E+00
  -4.936  0.723E+00  0.312E+00  0.222E+00  0.188E+00
  -4.836  0.760E+00  0.304E+00  0.245E+00  0.211E+00
  -4.736  0.809E+00  0.299E+00  0.258E+00  0.252E+00
  -4.636  0.860E+00  0.295E+00  0.260E+00  0.305E+00
  -4.536  0.888E+00  0.287E+00  0.252E+00  0.350E+00
  -4.436  0.876E+00  0.268E+00  0.238E+00  0.370E+00
  -4.336  0.824E+00  0.241E+00  0.222E+00  0.360E+00
  -4.236  0.757E+00  0.214E+00  0.209E+00  0.334E+00
  -4.136  0.696E+00  0.194E+00  0.198E+00  0.304E+00
  -4.036  0.646E+00  0.181E+00  0.188E+00  0.277E+00
  -3.936  0.595E+00  0.170E+00  0.175E+00  0.250E+00
  -3.836  0.543E+00  0.163E+00  0.160E+00  0.220E+00
  -3.736  0.501E+00  0.164E+00  0.147E+00  0.191E+00
  -3.636  0.478E+00  0.172E+00  0.137E+00  0.169E+00
  -3.536  0.480E+00  0.187E+00  0.135E+00  0.158E+00
  -3.436  0.509E+00  0.205E+00  0.142E+00  0.162E+00
  -3.336  0.574E+00  0.230E+00  0.160E+00  0.184E+00
  -3.236  0.668E+00  0.262E+00  0.186E+00  0.219E+00
  -3.136  0.762E+00  0.294E+00  0.214E+00  0.254E+00
  -3.036  0.822E+00  0.314E+00  0.238E+00  0.270E+00
  -2.936  0.835E+00  0.317E+00  0.254E+00  0.264E+00
  -2.836  0.816E+00  0.309E+00  0.264E+00  0.244E+00
  -2.736  0.784E+00  0.296E+00  0.268E+00  0.220E+00
  -2.636  0.747E+00  0.284E+00  0.267E+00  0.196E+00
  -2.536  0.704E+00  0.271E+00  0.256E+00  0.177E+00
  -2.436  0.660E+00  0.257E+00  0.237E+00  0.165E+00
  -2.336  0.621E+00  0.242E+00  0.214E+00  0.164E+00
  -2.236  0.589E+00  0.225E+00  0.193E+00  0.171E+00
  -2.136  0.562E+00  0.207E+00  0.177E+00  0.178E+00
  -2.036  0.534E+00  0.188E+00  0.166E+00  0.179E+00
  -1.936  0.498E+00  0.172E+00  0.155E+00  0.172E+00
  -1.836  0.455E+00  0.159E+00  0.141E+00  0.155E+00
  -1.736  0.409E+00  0.153E+00  0.123E+00  0.133E+00
  -1.636  0.368E+00  0.152E+00  0.106E+00  0.110E+00
  -1.536  0.333E+00  0.151E+00  0.921E-01  0.899E-01
  -1.436  0.296E+00  0.142E+00  0.794E-01  0.747E-01
  -1.336  0.248E+00  0.121E+00  0.656E-01  0.617E-01
  -1.236  0.188E+00  0.910E-01  0.496E-01  0.478E-01
  -1.136  0.125E+00  0.596E-01  0.332E-01  0.324E-01
  -1.036  0.709E-01  0.334E-01  0.191E-01  0.184E-01
  -0.936  0.333E-01  0.156E-01  0.920E-02  0.847E-02
  -0.836  0.128E-01  0.603E-02  0.364E-02  0.312E-02
  -0.736  0.396E-02  0.189E-02  0.116E-02  0.908E-03
  -0.636  0.989E-03  0.480E-03  0.299E-03  0.210E-03
  -0.536  0.277E-03  0.137E-03  0.886E-04  0.509E-04
  -0.436  0.573E-03  0.287E-03  0.195E-03  0.908E-04
  -0.336  0.269E-02  0.135E-02  0.918E-03  0.424E-03
  -0.236  0.102E-01  0.509E-02  0.348E-02  0.162E-02
  -0.136  0.297E-01  0.148E-01  0.102E-01  0.476E-02
  -0.036  0.668E-01  0.330E-01  0.229E-01  0.108E-01
   0.064  0.116E+00  0.567E-01  0.399E-01  0.191E-01
   0.164  0.155E+00  0.750E-01  0.540E-01  0.261E-01
   0.264  0.161E+00  0.764E-01  0.569E-01  0.278E-01
   0.364  0.130E+00  0.602E-01  0.469E-01  0.232E-01
   0.464  0.838E-01  0.372E-01  0.310E-01  0.157E-01
   0.564  0.486E-01  0.197E-01  0.188E-01  0.102E-01
   0.664  0.425E-01  0.143E-01  0.172E-01  0.109E-01
   0.764  0.735E-01  0.227E-01  0.296E-01  0.211E-01
   0.864  0.141E+00  0.442E-01  0.552E-01  0.420E-01
   0.964  0.232E+00  0.733E-01  0.877E-01  0.709E-01
   1.064  0.318E+00  0.997E-01  0.116E+00  0.102E+00
   1.164  0.377E+00  0.114E+00  0.135E+00  0.129E+00
   1.264  0.409E+00  0.114E+00  0.145E+00  0.150E+00
   1.364  0.434E+00  0.109E+00  0.159E+00  0.166E+00
   1.464  0.472E+00  0.109E+00  0.184E+00  0.179E+00
   1.564  0.532E+00  0.120E+00  0.219E+00  0.193E+00
   1.664  0.604E+00  0.139E+00  0.253E+00  0.212E+00
   1.764  0.666E+00  0.159E+00  0.275E+00  0.232E+00
   1.864  0.692E+00  0.171E+00  0.276E+00  0.245E+00
   1.964  0.669E+00  0.169E+00  0.256E+00  0.244E+00
   2.064  0.603E+00  0.154E+00  0.222E+00  0.227E+00
   2.164  0.505E+00  0.130E+00  0.179E+00  0.196E+00
   2.264  0.389E+00  0.999E-01  0.134E+00  0.155E+00
   2.364  0.269E+00  0.687E-01  0.911E-01  0.109E+00
   2.464  0.161E+00  0.410E-01  0.541E-01  0.662E-01
   2.564  0.821E-01  0.206E-01  0.273E-01  0.342E-01
   2.664  0.348E-01  0.857E-02  0.114E-01  0.148E-01
   2.764  0.121E-01  0.290E-02  0.387E-02  0.534E-02
   2.864  0.347E-02  0.792E-03  0.106E-02  0.161E-02
   2.964  0.816E-03  0.174E-03  0.235E-03  0.408E-03
   3.064  0.159E-03  0.308E-04  0.418E-04  0.866E-04
   3.164  0.258E-04  0.441E-05  0.599E-05  0.154E-04
   3.264  0.345E-05  0.512E-06  0.697E-06  0.225E-05
   3.364  0.380E-06  0.482E-07  0.656E-07  0.266E-06
   3.464  0.339E-07  0.367E-08  0.499E-08  0.252E-07
