# E (eV)   ldos(E)   pdos(E)    pdos(E)    pdos(E)   
 -16.436  0.936E-07  0.226E-07  0.279E-07  0.430E-07
 -16.336  0.904E-06  0.202E-06  0.276E-06  0.426E-06
 -16.236  0.683E-05  0.139E-05  0.213E-05  0.331E-05
 -16.136  0.406E-04  0.749E-05  0.129E-04  0.202E-04
 -16.036  0.191E-03  0.314E-04  0.613E-04  0.978E-04
 -15.936  0.714E-03  0.104E-03  0.232E-03  0.378E-03
 -15.836  0.215E-02  0.271E-03  0.704E-03  0.118E-02
 -15.736  0.531E-02  0.575E-03  0.174E-02  0.300E-02
 -15.636  0.109E-01  0.101E-02  0.355E-02  0.635E-02
 -15.536  0.192E-01  0.156E-02  0.626E-02  0.114E-01
 -15.436  0.298E-01  0.223E-02  0.996E-02  0.177E-01
 -15.336  0.426E-01  0.316E-02  0.150E-01  0.244E-01
 -15.236  0.576E-01  0.444E-02  0.221E-01  0.311E-01
 -15.136  0.742E-01  0.590E-02  0.312E-01  0.371E-01
 -15.036  0.913E-01  0.710E-02  0.420E-01  0.422E-01
 -14.936  0.107E+00  0.791E-02  0.533E-01  0.462E-01
 -14.836  0.123E+00  0.942E-02  0.640E-01  0.493E-01
 -14.736  0.140E+00  0.147E-01  0.733E-01  0.518E-01
 -14.636  0.164E+00  0.285E-01  0.810E-01  0.546E-01
 -14.536  0.201E+00  0.550E-01  0.874E-01  0.586E-01
 -14.436  0.250E+00  0.927E-01  0.928E-01  0.642E-01
 -14.336  0.300E+00  0.133E+00  0.967E-01  0.707E-01
 -14.236  0.339E+00  0.164E+00  0.983E-01  0.770E-01
 -14.136  0.362E+00  0.181E+00  0.978E-01  0.834E-01
 -14.036  0.374E+00  0.186E+00  0.970E-01  0.918E-01
 -13.936  0.385E+00  0.183E+00  0.979E-01  0.104E+00
 -13.836  0.396E+00  0.174E+00  0.101E+00  0.121E+00
 -13.736  0.406E+00  0.161E+00  0.107E+00  0.138E+00
 -13.636  0.406E+00  0.147E+00  0.113E+00  0.147E+00
 -13.536  0.387E+00  0.134E+00  0.113E+00  0.140E+00
 -13.436  0.340E+00  0.119E+00  0.104E+00  0.117E+00
 -13.336  0.271E+00  0.100E+00  0.844E-01  0.858E-01
 -13.236  0.191E+00  0.773E-01  0.591E-01  0.546E-01
 -13.136  0.118E+00  0.529E-01  0.351E-01  0.300E-01
 -13.036  0.633E-01  0.314E-01  0.177E-01  0.142E-01
 -12.936  0.293E-01  0.159E-01  0.759E-02  0.578E-02
 -12.836  0.116E-01  0.674E-02  0.282E-02  0.201E-02
 -12.736  0.387E-02  0.235E-02  0.920E-03  0.596E-03
 -12.636  0.108E-02  0.665E-03  0.262E-03  0.149E-03
 -12.536  0.246E-03  0.151E-03  0.639E-04  0.310E-04
 -12.436  0.454E-04  0.273E-04  0.129E-04  0.521E-05
 -12.336  0.670E-05  0.390E-05  0.210E-05  0.698E-06
 -12.236  0.783E-06  0.438E-06  0.271E-06  0.735E-07
 -12.136  0.720E-07  0.386E-07  0.274E-07  0.602E-08
 -12.036  0.519E-08  0.266E-08  0.214E-08  0.383E-09
 -11.936  0.291E-09  0.143E-09  0.129E-09  0.188E-10
 -11.836  0.127E-10  0.596E-11  0.603E-11  0.712E-12
 -11.736  0.428E-12  0.192E-12  0.216E-12  0.207E-13
 -11.636  0.101E-13  0.418E-14  0.583E-14  0.136E-15
 -11.536  0.000E+00  0.000E+00  0.000E+00  0.000E+00
 -11.436  0.000E+00  0.000E+00  0.000E+00  0.000E+00
 -11.336  0.000E+00  0.000E+00  0.000E+00  0.000E+00
 -11.236  0.000E+00  0.000E+00  0.000E+00  0.000E+00
 -11.136  0.000E+00  0.000E+00  0.000E+00  0.000E+00
 -11.036  0.000E+00  0.000E+00  0.000E+00  0.000E+00
 -10.936  0.000E+00  0.000E+00  0.000E+00  0.000E+00
 -10.836  0.000E+00  0.000E+00  0.000E+00  0.000E+00
 -10.736  0.000E+00  0.000E+00  0.000E+00  0.000E+00
 -10.636  0.000E+00  0.000E+00  0.000E+00  0.000E+00
 -10.536  0.000E+00  0.000E+00  0.000E+00  0.000E+00
 -10.436  0.000E+00  0.000E+00  0.000E+00  0.000E+00
 -10.336  0.000E+00  0.000E+00  0.000E+00  0.000E+00
 -10.236  0.000E+00  0.000E+00  0.000E+00  0.000E+00
 -10.136  0.000E+00  0.000E+00  0.000E+00  0.000E+00
 -10.036  0.000E+00  0.000E+00  0.000E+00  0.000E+00
  -9.936  0.000E+00  0.000E+00  0.000E+00  0.000E+00
  -9.836  0.000E+00  0.000E+00  0.000E+00  0.000E+00
  -9.736  0.000E+00  0.000E+00  0.000E+00  0.000E+00
  -9.636  0.000E+00  0.000E+00  0.000E+00  0.000E+00
  -9.536  0.000E+00  0.000E+00  0.000E+00  0.000E+00
  -9.436  0.000E+00  0.000E+00  0.000E+00  0.000E+00
  -9.336  0.000E+00  0.000E+00  0.000E+00  0.000E+00
  -9.236  0.000E+00  0.000E+00  0.000E+00  0.000E+00
  -9.136  0.000E+00  0.000E+00  0.000E+00  0.000E+00
  -9.036  0.000E+00  0.000E+00  0.000E+00  0.000E+00
  -8.936  0.000E+00  0.000E+00  0.000E+00  0.000E+00
  -8.836  0.000E+00  0.000E+00  0.000E+00  0.000E+00
  -8.736  0.229E-13  0.842E-15  0.130E-13  0.909E-14
  -8.636  0.106E-11  0.385E-13  0.603E-12  0.415E-12
  -8.536  0.326E-10  0.118E-11  0.186E-10  0.128E-10
  -8.436  0.770E-09  0.280E-10  0.441E-09  0.301E-09
  -8.336  0.140E-07  0.508E-09  0.801E-08  0.545E-08
  -8.236  0.195E-06  0.709E-08  0.112E-06  0.758E-07
  -8.136  0.209E-05  0.764E-07  0.120E-05  0.811E-06
  -8.036  0.172E-04  0.636E-06  0.993E-05  0.668E-05
  -7.936  0.110E-03  0.411E-05  0.632E-04  0.424E-04
  -7.836  0.540E-03  0.208E-04  0.311E-03  0.208E-03
  -7.736  0.206E-02  0.837E-04  0.118E-02  0.793E-03
  -7.636  0.612E-02  0.274E-03  0.349E-02  0.236E-02
  -7.536  0.144E-01  0.755E-03  0.808E-02  0.554E-02
  -7.436  0.271E-01  0.184E-02  0.148E-01  0.105E-01
  -7.336  0.424E-01  0.406E-02  0.219E-01  0.164E-01
  -7.236  0.575E-01  0.815E-02  0.271E-01  0.222E-01
  -7.136  0.711E-01  0.144E-01  0.295E-01  0.272E-01
  -7.036  0.831E-01  0.219E-01  0.300E-01  0.311E-01
  -6.936  0.924E-01  0.286E-01  0.301E-01  0.336E-01
  -6.836  0.970E-01  0.327E-01  0.299E-01  0.344E-01
  -6.736  0.960E-01  0.342E-01  0.288E-01  0.331E-01
  -6.636  0.901E-01  0.338E-01  0.264E-01  0.299E-01
  -6.536  0.814E-01  0.323E-01  0.233E-01  0.258E-01
  -6.436  0.723E-01  0.304E-01  0.203E-01  0.215E-01
  -6.336  0.643E-01  0.293E-01  0.174E-01  0.175E-01
  -6.236  0.585E-01  0.304E-01  0.142E-01  0.139E-01
  -6.136  0.557E-01  0.342E-01  0.105E-01  0.110E-01
  -6.036  0.560E-01  0.401E-01  0.714E-02  0.874E-02
  -5.936  0.573E-01  0.452E-01  0.490E-02  0.723E-02
  -5.836  0.569E-01  0.459E-01  0.428E-02  0.667E-02
  -5.736  0.544E-01  0.409E-01  0.563E-02  0.790E-02
  -5.636  0.545E-01  0.329E-01  0.950E-02  0.121E-01
  -5.536  0.628E-01  0.266E-01  0.164E-01  0.198E-01
  -5.436  0.799E-01  0.248E-01  0.257E-01  0.294E-01
  -5.336  0.994E-01  0.266E-01  0.350E-01  0.378E-01
  -5.236  0.113E+00  0.296E-01  0.411E-01  0.420E-01
  -5.136  0.115E+00  0.324E-01  0.419E-01  0.407E-01
  -5.036  0.109E+00  0.352E-01  0.383E-01  0.352E-01
  -4.936  0.997E-01  0.394E-01  0.324E-01  0.279E-01
  -4.836  0.929E-01  0.455E-01  0.263E-01  0.212E-01
  -4.736  0.899E-01  0.523E-01  0.210E-01  0.166E-01
  -4.636  0.886E-01  0.570E-01  0.171E-01  0.145E-01
  -4.536  0.858E-01  0.568E-01  0.149E-01  0.141E-01
  -4.436  0.796E-01  0.511E-01  0.141E-01  0.144E-01
  -4.336  0.709E-01  0.419E-01  0.140E-01  0.149E-01
  -4.236  0.618E-01  0.323E-01  0.142E-01  0.153E-01
  -4.136  0.540E-01  0.240E-01  0.143E-01  0.156E-01
  -4.036  0.476E-01  0.179E-01  0.143E-01  0.154E-01
  -3.936  0.425E-01  0.136E-01  0.141E-01  0.148E-01
  -3.836  0.392E-01  0.108E-01  0.142E-01  0.143E-01
  -3.736  0.384E-01  0.922E-02  0.148E-01  0.144E-01
  -3.636  0.398E-01  0.901E-02  0.159E-01  0.149E-01
  -3.536  0.431E-01  0.102E-01  0.173E-01  0.157E-01
  -3.436  0.482E-01  0.128E-01  0.189E-01  0.165E-01
  -3.336  0.552E-01  0.166E-01  0.209E-01  0.177E-01
  -3.236  0.626E-01  0.208E-01  0.228E-01  0.191E-01
  -3.136  0.681E-01  0.239E-01  0.238E-01  0.204E-01
  -3.036  0.702E-01  0.249E-01  0.238E-01  0.215E-01
  -2.936  0.694E-01  0.240E-01  0.229E-01  0.225E-01
  -2.836  0.675E-01  0.221E-01  0.217E-01  0.237E-01
  -2.736  0.659E-01  0.201E-01  0.207E-01  0.251E-01
  -2.636  0.646E-01  0.184E-01  0.200E-01  0.262E-01
  -2.536  0.632E-01  0.168E-01  0.196E-01  0.267E-01
  -2.436  0.617E-01  0.155E-01  0.197E-01  0.265E-01
  -2.336  0.607E-01  0.144E-01  0.202E-01  0.261E-01
  -2.236  0.609E-01  0.136E-01  0.214E-01  0.258E-01
  -2.136  0.621E-01  0.132E-01  0.233E-01  0.256E-01
  -2.036  0.635E-01  0.133E-01  0.252E-01  0.251E-01
  -1.936  0.634E-01  0.135E-01  0.259E-01  0.241E-01
  -1.836  0.604E-01  0.135E-01  0.244E-01  0.226E-01
  -1.736  0.547E-01  0.129E-01  0.207E-01  0.211E-01
  -1.636  0.478E-01  0.119E-01  0.160E-01  0.199E-01
  -1.536  0.409E-01  0.110E-01  0.115E-01  0.184E-01
  -1.436  0.341E-01  0.102E-01  0.803E-02  0.159E-01
  -1.336  0.270E-01  0.925E-02  0.540E-02  0.124E-01
  -1.236  0.194E-01  0.764E-02  0.339E-02  0.841E-02
  -1.136  0.123E-01  0.541E-02  0.189E-02  0.498E-02
  -1.036  0.663E-02  0.317E-02  0.900E-03  0.257E-02
  -0.936  0.300E-02  0.149E-02  0.357E-03  0.115E-02
  -0.836  0.111E-02  0.561E-03  0.115E-03  0.439E-03
  -0.736  0.336E-03  0.167E-03  0.302E-04  0.140E-03
  -0.636  0.818E-04  0.391E-04  0.639E-05  0.363E-04
  -0.536  0.180E-04  0.820E-05  0.194E-05  0.782E-05
  -0.436  0.170E-04  0.773E-05  0.618E-05  0.306E-05
  -0.336  0.743E-04  0.333E-04  0.313E-04  0.970E-05
  -0.236  0.290E-03  0.126E-03  0.126E-03  0.386E-04
  -0.136  0.879E-03  0.369E-03  0.390E-03  0.121E-03
  -0.036  0.206E-02  0.832E-03  0.940E-03  0.291E-03
   0.064  0.376E-02  0.145E-02  0.177E-02  0.545E-03
   0.164  0.535E-02  0.197E-02  0.259E-02  0.793E-03
   0.264  0.596E-02  0.208E-02  0.298E-02  0.897E-03
   0.364  0.523E-02  0.173E-02  0.270E-02  0.802E-03
   0.464  0.373E-02  0.115E-02  0.196E-02  0.618E-03
   0.564  0.257E-02  0.661E-03  0.130E-02  0.610E-03
   0.664  0.290E-02  0.512E-03  0.124E-02  0.115E-02
   0.764  0.567E-02  0.854E-03  0.217E-02  0.265E-02
   0.864  0.113E-01  0.178E-02  0.424E-02  0.525E-02
   0.964  0.189E-01  0.321E-02  0.716E-02  0.849E-02
   1.064  0.262E-01  0.477E-02  0.101E-01  0.113E-01
   1.164  0.308E-01  0.596E-02  0.122E-01  0.126E-01
   1.264  0.320E-01  0.651E-02  0.129E-01  0.125E-01
   1.364  0.304E-01  0.649E-02  0.122E-01  0.117E-01
   1.464  0.276E-01  0.615E-02  0.105E-01  0.110E-01
   1.564  0.246E-01  0.573E-02  0.847E-02  0.104E-01
   1.664  0.223E-01  0.544E-02  0.681E-02  0.101E-01
   1.764  0.213E-01  0.539E-02  0.597E-02  0.995E-02
   1.864  0.219E-01  0.559E-02  0.608E-02  0.102E-01
   1.964  0.237E-01  0.589E-02  0.682E-02  0.109E-01
   2.064  0.252E-01  0.601E-02  0.754E-02  0.116E-01
   2.164  0.248E-01  0.567E-02  0.757E-02  0.116E-01
   2.264  0.215E-01  0.474E-02  0.660E-02  0.102E-01
   2.364  0.159E-01  0.340E-02  0.489E-02  0.760E-02
   2.464  0.976E-02  0.203E-02  0.304E-02  0.469E-02
   2.564  0.491E-02  0.995E-03  0.156E-02  0.236E-02
   2.664  0.200E-02  0.395E-03  0.653E-03  0.948E-03
   2.764  0.652E-03  0.127E-03  0.222E-03  0.304E-03
   2.864  0.171E-03  0.331E-04  0.609E-04  0.767E-04
   2.964  0.358E-04  0.707E-05  0.135E-04  0.153E-04
   3.064  0.605E-05  0.125E-05  0.242E-05  0.238E-05
   3.164  0.830E-06  0.186E-06  0.354E-06  0.290E-06
   3.264  0.932E-07  0.233E-07  0.422E-07  0.277E-07
   3.364  0.862E-08  0.243E-08  0.410E-08  0.209E-08
   3.464  0.655E-09  0.207E-09  0.322E-09  0.125E-09
