# E (eV)   ldos(E)   pdos(E)    pdos(E)    pdos(E)   
 -16.436  0.503E-07  0.434E-07  0.395E-08  0.298E-08
 -16.336  0.455E-06  0.387E-06  0.390E-07  0.294E-07
 -16.236  0.320E-05  0.267E-05  0.302E-06  0.226E-06
 -16.136  0.175E-04  0.143E-04  0.184E-05  0.137E-05
 -16.036  0.752E-04  0.597E-04  0.888E-05  0.656E-05
 -15.936  0.255E-03  0.196E-03  0.343E-04  0.250E-04
 -15.836  0.693E-03  0.510E-03  0.107E-03  0.766E-04
 -15.736  0.153E-02  0.106E-02  0.272E-03  0.192E-03
 -15.636  0.278E-02  0.181E-02  0.575E-03  0.397E-03
 -15.536  0.428E-02  0.256E-02  0.102E-02  0.697E-03
 -15.436  0.574E-02  0.311E-02  0.156E-02  0.107E-02
 -15.336  0.693E-02  0.334E-02  0.210E-02  0.149E-02
 -15.236  0.784E-02  0.330E-02  0.258E-02  0.196E-02
 -15.136  0.859E-02  0.315E-02  0.298E-02  0.246E-02
 -15.036  0.933E-02  0.301E-02  0.333E-02  0.299E-02
 -14.936  0.101E-01  0.297E-02  0.367E-02  0.350E-02
 -14.836  0.110E-01  0.310E-02  0.399E-02  0.394E-02
 -14.736  0.120E-01  0.344E-02  0.430E-02  0.430E-02
 -14.636  0.133E-01  0.404E-02  0.469E-02  0.461E-02
 -14.536  0.151E-01  0.490E-02  0.524E-02  0.497E-02
 -14.436  0.174E-01  0.592E-02  0.600E-02  0.544E-02
 -14.336  0.198E-01  0.691E-02  0.682E-02  0.607E-02
 -14.236  0.221E-01  0.770E-02  0.750E-02  0.689E-02
 -14.136  0.240E-01  0.827E-02  0.791E-02  0.787E-02
 -14.036  0.256E-01  0.866E-02  0.808E-02  0.889E-02
 -13.936  0.268E-01  0.895E-02  0.813E-02  0.968E-02
 -13.836  0.274E-01  0.927E-02  0.810E-02  0.100E-01
 -13.736  0.275E-01  0.965E-02  0.796E-02  0.985E-02
 -13.636  0.267E-01  0.996E-02  0.760E-02  0.916E-02
 -13.536  0.249E-01  0.992E-02  0.697E-02  0.803E-02
 -13.436  0.220E-01  0.930E-02  0.604E-02  0.662E-02
 -13.336  0.180E-01  0.803E-02  0.486E-02  0.512E-02
 -13.236  0.135E-01  0.625E-02  0.353E-02  0.369E-02
 -13.136  0.897E-02  0.429E-02  0.225E-02  0.243E-02
 -13.036  0.519E-02  0.255E-02  0.123E-02  0.141E-02
 -12.936  0.256E-02  0.128E-02  0.575E-03  0.705E-03
 -12.836  0.106E-02  0.541E-03  0.226E-03  0.293E-03
 -12.736  0.363E-03  0.189E-03  0.742E-04  0.993E-04
 -12.636  0.102E-03  0.542E-04  0.201E-04  0.272E-04
 -12.536  0.230E-04  0.126E-04  0.444E-05  0.598E-05
 -12.436  0.421E-05  0.237E-05  0.791E-06  0.105E-05
 -12.336  0.616E-06  0.358E-06  0.113E-06  0.146E-06
 -12.236  0.716E-07  0.428E-07  0.127E-07  0.160E-07
 -12.136  0.657E-08  0.405E-08  0.113E-08  0.139E-08
 -12.036  0.475E-09  0.300E-09  0.792E-10  0.951E-10
 -11.936  0.268E-10  0.174E-10  0.432E-11  0.508E-11
 -11.836  0.118E-11  0.783E-12  0.183E-12  0.212E-12
 -11.736  0.399E-13  0.271E-13  0.601E-14  0.676E-14
 -11.636  0.972E-15  0.686E-15  0.136E-15  0.149E-15
 -11.536  0.000E+00  0.000E+00  0.000E+00  0.000E+00
 -11.436  0.000E+00  0.000E+00  0.000E+00  0.000E+00
 -11.336  0.000E+00  0.000E+00  0.000E+00  0.000E+00
 -11.236  0.000E+00  0.000E+00  0.000E+00  0.000E+00
 -11.136  0.000E+00  0.000E+00  0.000E+00  0.000E+00
 -11.036  0.000E+00  0.000E+00  0.000E+00  0.000E+00
 -10.936  0.000E+00  0.000E+00  0.000E+00  0.000E+00
 -10.836  0.000E+00  0.000E+00  0.000E+00  0.000E+00
 -10.736  0.000E+00  0.000E+00  0.000E+00  0.000E+00
 -10.636  0.000E+00  0.000E+00  0.000E+00  0.000E+00
 -10.536  0.000E+00  0.000E+00  0.000E+00  0.000E+00
 -10.436  0.000E+00  0.000E+00  0.000E+00  0.000E+00
 -10.336  0.000E+00  0.000E+00  0.000E+00  0.000E+00
 -10.236  0.000E+00  0.000E+00  0.000E+00  0.000E+00
 -10.136  0.000E+00  0.000E+00  0.000E+00  0.000E+00
 -10.036  0.000E+00  0.000E+00  0.000E+00  0.000E+00
  -9.936  0.000E+00  0.000E+00  0.000E+00  0.000E+00
  -9.836  0.000E+00  0.000E+00  0.000E+00  0.000E+00
  -9.736  0.000E+00  0.000E+00  0.000E+00  0.000E+00
  -9.636  0.000E+00  0.000E+00  0.000E+00  0.000E+00
  -9.536  0.000E+00  0.000E+00  0.000E+00  0.000E+00
  -9.436  0.000E+00  0.000E+00  0.000E+00  0.000E+00
  -9.336  0.000E+00  0.000E+00  0.000E+00  0.000E+00
  -9.236  0.000E+00  0.000E+00  0.000E+00  0.000E+00
  -9.136  0.000E+00  0.000E+00  0.000E+00  0.000E+00
  -9.036  0.000E+00  0.000E+00  0.000E+00  0.000E+00
  -8.936  0.000E+00  0.000E+00  0.000E+00  0.000E+00
  -8.836  0.000E+00  0.000E+00  0.000E+00  0.000E+00
  -8.736  0.995E-13  0.153E-15  0.605E-13  0.388E-13
  -8.636  0.453E-11  0.703E-14  0.278E-11  0.174E-11
  -8.536  0.139E-09  0.219E-12  0.858E-10  0.533E-10
  -8.436  0.329E-08  0.526E-11  0.203E-08  0.125E-08
  -8.336  0.595E-07  0.975E-10  0.368E-07  0.226E-07
  -8.236  0.828E-06  0.141E-08  0.513E-06  0.313E-06
  -8.136  0.887E-05  0.160E-07  0.551E-05  0.334E-05
  -8.036  0.731E-04  0.148E-06  0.455E-04  0.275E-04
  -7.936  0.466E-03  0.115E-05  0.290E-03  0.174E-03
  -7.836  0.230E-02  0.780E-05  0.143E-02  0.858E-03
  -7.736  0.884E-02  0.475E-04  0.550E-02  0.329E-02
  -7.636  0.267E-01  0.257E-03  0.165E-01  0.995E-02
  -7.536  0.645E-01  0.119E-02  0.393E-01  0.241E-01
  -7.436  0.128E+00  0.458E-02  0.753E-01  0.479E-01
  -7.336  0.216E+00  0.145E-01  0.120E+00  0.815E-01
  -7.236  0.327E+00  0.374E-01  0.166E+00  0.124E+00
  -7.136  0.462E+00  0.788E-01  0.208E+00  0.175E+00
  -7.036  0.621E+00  0.138E+00  0.248E+00  0.235E+00
  -6.936  0.791E+00  0.204E+00  0.288E+00  0.299E+00
  -6.836  0.937E+00  0.262E+00  0.321E+00  0.353E+00
  -6.736  0.102E+01  0.303E+00  0.337E+00  0.384E+00
  -6.636  0.103E+01  0.322E+00  0.327E+00  0.385E+00
  -6.536  0.971E+00  0.317E+00  0.296E+00  0.359E+00
  -6.436  0.861E+00  0.289E+00  0.257E+00  0.315E+00
  -6.336  0.732E+00  0.249E+00  0.223E+00  0.260E+00
  -6.236  0.610E+00  0.210E+00  0.197E+00  0.203E+00
  -6.136  0.517E+00  0.184E+00  0.176E+00  0.156E+00
  -6.036  0.455E+00  0.170E+00  0.157E+00  0.128E+00
  -5.936  0.410E+00  0.157E+00  0.138E+00  0.115E+00
  -5.836  0.369E+00  0.140E+00  0.120E+00  0.110E+00
  -5.736  0.339E+00  0.126E+00  0.107E+00  0.106E+00
  -5.636  0.343E+00  0.131E+00  0.104E+00  0.108E+00
  -5.536  0.398E+00  0.164E+00  0.113E+00  0.120E+00
  -5.436  0.493E+00  0.220E+00  0.131E+00  0.142E+00
  -5.336  0.596E+00  0.278E+00  0.152E+00  0.166E+00
  -5.236  0.668E+00  0.315E+00  0.171E+00  0.182E+00
  -5.136  0.693E+00  0.322E+00  0.183E+00  0.188E+00
  -5.036  0.684E+00  0.306E+00  0.189E+00  0.188E+00
  -4.936  0.671E+00  0.283E+00  0.194E+00  0.195E+00
  -4.836  0.683E+00  0.263E+00  0.202E+00  0.217E+00
  -4.736  0.726E+00  0.252E+00  0.218E+00  0.256E+00
  -4.636  0.781E+00  0.247E+00  0.238E+00  0.296E+00
  -4.536  0.816E+00  0.240E+00  0.256E+00  0.320E+00
  -4.436  0.808E+00  0.227E+00  0.266E+00  0.315E+00
  -4.336  0.760E+00  0.209E+00  0.263E+00  0.287E+00
  -4.236  0.696E+00  0.193E+00  0.254E+00  0.249E+00
  -4.136  0.640E+00  0.181E+00  0.242E+00  0.217E+00
  -4.036  0.596E+00  0.174E+00  0.226E+00  0.196E+00
  -3.936  0.559E+00  0.172E+00  0.204E+00  0.183E+00
  -3.836  0.532E+00  0.174E+00  0.180E+00  0.178E+00
  -3.736  0.526E+00  0.184E+00  0.162E+00  0.180E+00
  -3.636  0.548E+00  0.201E+00  0.157E+00  0.189E+00
  -3.536  0.594E+00  0.223E+00  0.172E+00  0.200E+00
  -3.436  0.660E+00  0.248E+00  0.203E+00  0.209E+00
  -3.336  0.741E+00  0.281E+00  0.242E+00  0.218E+00
  -3.236  0.827E+00  0.324E+00  0.278E+00  0.225E+00
  -3.136  0.895E+00  0.366E+00  0.300E+00  0.230E+00
  -3.036  0.923E+00  0.390E+00  0.303E+00  0.230E+00
  -2.936  0.903E+00  0.387E+00  0.291E+00  0.225E+00
  -2.836  0.849E+00  0.361E+00  0.271E+00  0.217E+00
  -2.736  0.778E+00  0.325E+00  0.248E+00  0.205E+00
  -2.636  0.701E+00  0.288E+00  0.224E+00  0.190E+00
  -2.536  0.624E+00  0.254E+00  0.197E+00  0.172E+00
  -2.436  0.554E+00  0.228E+00  0.171E+00  0.155E+00
  -2.336  0.502E+00  0.210E+00  0.149E+00  0.143E+00
  -2.236  0.471E+00  0.198E+00  0.135E+00  0.139E+00
  -2.136  0.458E+00  0.189E+00  0.129E+00  0.140E+00
  -2.036  0.452E+00  0.183E+00  0.129E+00  0.141E+00
  -1.936  0.441E+00  0.176E+00  0.127E+00  0.138E+00
  -1.836  0.416E+00  0.168E+00  0.121E+00  0.128E+00
  -1.736  0.379E+00  0.157E+00  0.110E+00  0.112E+00
  -1.636  0.335E+00  0.145E+00  0.969E-01  0.932E-01
  -1.536  0.293E+00  0.133E+00  0.852E-01  0.750E-01
  -1.436  0.250E+00  0.117E+00  0.744E-01  0.589E-01
  -1.336  0.204E+00  0.970E-01  0.623E-01  0.447E-01
  -1.236  0.153E+00  0.729E-01  0.477E-01  0.319E-01
  -1.136  0.101E+00  0.484E-01  0.321E-01  0.203E-01
  -1.036  0.571E-01  0.276E-01  0.184E-01  0.111E-01
  -0.936  0.270E-01  0.132E-01  0.876E-02  0.502E-02
  -0.836  0.104E-01  0.517E-02  0.341E-02  0.184E-02
  -0.736  0.325E-02  0.164E-02  0.107E-02  0.537E-03
  -0.636  0.817E-03  0.418E-03  0.271E-03  0.129E-03
  -0.536  0.231E-03  0.985E-04  0.725E-04  0.595E-04
  -0.436  0.484E-03  0.109E-03  0.133E-03  0.242E-03
  -0.336  0.229E-02  0.473E-03  0.622E-03  0.119E-02
  -0.236  0.877E-02  0.179E-02  0.240E-02  0.458E-02
  -0.136  0.260E-01  0.522E-02  0.716E-02  0.136E-01
  -0.036  0.598E-01  0.118E-01  0.166E-01  0.313E-01
   0.064  0.107E+00  0.208E-01  0.299E-01  0.560E-01
   0.164  0.149E+00  0.286E-01  0.422E-01  0.779E-01
   0.264  0.162E+00  0.308E-01  0.467E-01  0.848E-01
   0.364  0.140E+00  0.262E-01  0.408E-01  0.726E-01
   0.464  0.961E-01  0.180E-01  0.288E-01  0.493E-01
   0.564  0.584E-01  0.115E-01  0.187E-01  0.281E-01
   0.664  0.471E-01  0.115E-01  0.176E-01  0.181E-01
   0.764  0.733E-01  0.216E-01  0.297E-01  0.220E-01
   0.864  0.138E+00  0.433E-01  0.552E-01  0.391E-01
   0.964  0.227E+00  0.731E-01  0.884E-01  0.658E-01
   1.064  0.319E+00  0.102E+00  0.120E+00  0.975E-01
   1.164  0.394E+00  0.120E+00  0.143E+00  0.131E+00
   1.264  0.452E+00  0.127E+00  0.160E+00  0.164E+00
   1.364  0.502E+00  0.128E+00  0.180E+00  0.193E+00
   1.464  0.554E+00  0.131E+00  0.209E+00  0.213E+00
   1.564  0.609E+00  0.140E+00  0.244E+00  0.225E+00
   1.664  0.663E+00  0.153E+00  0.275E+00  0.235E+00
   1.764  0.703E+00  0.164E+00  0.292E+00  0.247E+00
   1.864  0.715E+00  0.168E+00  0.290E+00  0.258E+00
   1.964  0.692E+00  0.160E+00  0.273E+00  0.259E+00
   2.064  0.636E+00  0.145E+00  0.247E+00  0.244E+00
   2.164  0.550E+00  0.125E+00  0.215E+00  0.210E+00
   2.264  0.438E+00  0.102E+00  0.174E+00  0.162E+00
   2.364  0.311E+00  0.769E-01  0.125E+00  0.109E+00
   2.464  0.191E+00  0.517E-01  0.763E-01  0.628E-01
   2.564  0.993E-01  0.306E-01  0.386E-01  0.301E-01
   2.664  0.435E-01  0.157E-01  0.159E-01  0.119E-01
   2.764  0.160E-01  0.689E-02  0.531E-02  0.380E-02
   2.864  0.495E-02  0.255E-02  0.142E-02  0.984E-03
   2.964  0.129E-02  0.777E-03  0.307E-03  0.206E-03
   3.064  0.280E-03  0.191E-03  0.535E-04  0.350E-04
   3.164  0.499E-04  0.375E-04  0.758E-05  0.483E-05
   3.264  0.719E-05  0.577E-05  0.876E-06  0.545E-06
   3.364  0.825E-06  0.693E-06  0.825E-07  0.503E-07
   3.464  0.747E-07  0.646E-07  0.630E-08  0.379E-08
