# E (eV)   ldos(E)   pdos(E)    pdos(E)    pdos(E)   
 -16.436  0.223E-06  0.714E-07  0.452E-07  0.106E-06
 -16.336  0.207E-05  0.636E-06  0.450E-06  0.985E-06
 -16.236  0.150E-04  0.438E-05  0.351E-05  0.711E-05
 -16.136  0.851E-04  0.234E-04  0.215E-04  0.402E-04
 -16.036  0.382E-03  0.975E-04  0.105E-03  0.180E-03
 -15.936  0.137E-02  0.319E-03  0.408E-03  0.640E-03
 -15.836  0.395E-02  0.825E-03  0.128E-02  0.184E-02
 -15.736  0.934E-02  0.172E-02  0.329E-02  0.433E-02
 -15.636  0.184E-01  0.300E-02  0.697E-02  0.847E-02
 -15.536  0.310E-01  0.462E-02  0.124E-01  0.140E-01
 -15.436  0.454E-01  0.679E-02  0.190E-01  0.197E-01
 -15.336  0.595E-01  0.993E-02  0.254E-01  0.242E-01
 -15.236  0.714E-01  0.140E-01  0.308E-01  0.267E-01
 -15.136  0.806E-01  0.178E-01  0.352E-01  0.276E-01
 -15.036  0.874E-01  0.197E-01  0.394E-01  0.284E-01
 -14.936  0.933E-01  0.192E-01  0.441E-01  0.301E-01
 -14.836  0.101E+00  0.181E-01  0.495E-01  0.330E-01
 -14.736  0.112E+00  0.197E-01  0.552E-01  0.366E-01
 -14.636  0.128E+00  0.276E-01  0.603E-01  0.403E-01
 -14.536  0.151E+00  0.436E-01  0.642E-01  0.435E-01
 -14.436  0.180E+00  0.661E-01  0.676E-01  0.458E-01
 -14.336  0.210E+00  0.903E-01  0.718E-01  0.476E-01
 -14.236  0.239E+00  0.112E+00  0.776E-01  0.496E-01
 -14.136  0.269E+00  0.131E+00  0.848E-01  0.529E-01
 -14.036  0.299E+00  0.149E+00  0.932E-01  0.573E-01
 -13.936  0.328E+00  0.163E+00  0.103E+00  0.616E-01
 -13.836  0.351E+00  0.170E+00  0.116E+00  0.651E-01
 -13.736  0.367E+00  0.170E+00  0.128E+00  0.690E-01
 -13.636  0.376E+00  0.163E+00  0.137E+00  0.757E-01
 -13.536  0.370E+00  0.150E+00  0.135E+00  0.848E-01
 -13.436  0.341E+00  0.132E+00  0.119E+00  0.907E-01
 -13.336  0.285E+00  0.107E+00  0.914E-01  0.860E-01
 -13.236  0.209E+00  0.796E-01  0.607E-01  0.690E-01
 -13.136  0.133E+00  0.522E-01  0.344E-01  0.460E-01
 -13.036  0.716E-01  0.295E-01  0.166E-01  0.255E-01
 -12.936  0.328E-01  0.140E-01  0.684E-02  0.119E-01
 -12.836  0.126E-01  0.555E-02  0.242E-02  0.466E-02
 -12.736  0.408E-02  0.180E-02  0.751E-03  0.153E-02
 -12.636  0.109E-02  0.474E-03  0.204E-03  0.410E-03
 -12.536  0.237E-03  0.101E-03  0.478E-04  0.887E-04
 -12.436  0.417E-04  0.171E-04  0.939E-05  0.152E-04
 -12.336  0.586E-05  0.233E-05  0.151E-05  0.203E-05
 -12.236  0.654E-06  0.251E-06  0.193E-06  0.210E-06
 -12.136  0.575E-07  0.213E-07  0.193E-07  0.169E-07
 -12.036  0.397E-08  0.143E-08  0.151E-08  0.104E-08
 -11.936  0.215E-09  0.750E-10  0.910E-10  0.491E-10
 -11.836  0.908E-11  0.307E-11  0.423E-11  0.178E-11
 -11.736  0.298E-12  0.971E-13  0.151E-12  0.495E-13
 -11.636  0.615E-14  0.203E-14  0.408E-14  0.419E-16
 -11.536  0.000E+00  0.000E+00  0.000E+00  0.000E+00
 -11.436  0.000E+00  0.000E+00  0.000E+00  0.000E+00
 -11.336  0.000E+00  0.000E+00  0.000E+00  0.000E+00
 -11.236  0.000E+00  0.000E+00  0.000E+00  0.000E+00
 -11.136  0.000E+00  0.000E+00  0.000E+00  0.000E+00
 -11.036  0.000E+00  0.000E+00  0.000E+00  0.000E+00
 -10.936  0.000E+00  0.000E+00  0.000E+00  0.000E+00
 -10.836  0.000E+00  0.000E+00  0.000E+00  0.000E+00
 -10.736  0.000E+00  0.000E+00  0.000E+00  0.000E+00
 -10.636  0.000E+00  0.000E+00  0.000E+00  0.000E+00
 -10.536  0.000E+00  0.000E+00  0.000E+00  0.000E+00
 -10.436  0.000E+00  0.000E+00  0.000E+00  0.000E+00
 -10.336  0.000E+00  0.000E+00  0.000E+00  0.000E+00
 -10.236  0.000E+00  0.000E+00  0.000E+00  0.000E+00
 -10.136  0.000E+00  0.000E+00  0.000E+00  0.000E+00
 -10.036  0.000E+00  0.000E+00  0.000E+00  0.000E+00
  -9.936  0.000E+00  0.000E+00  0.000E+00  0.000E+00
  -9.836  0.000E+00  0.000E+00  0.000E+00  0.000E+00
  -9.736  0.000E+00  0.000E+00  0.000E+00  0.000E+00
  -9.636  0.000E+00  0.000E+00  0.000E+00  0.000E+00
  -9.536  0.000E+00  0.000E+00  0.000E+00  0.000E+00
  -9.436  0.000E+00  0.000E+00  0.000E+00  0.000E+00
  -9.336  0.000E+00  0.000E+00  0.000E+00  0.000E+00
  -9.236  0.000E+00  0.000E+00  0.000E+00  0.000E+00
  -9.136  0.000E+00  0.000E+00  0.000E+00  0.000E+00
  -9.036  0.000E+00  0.000E+00  0.000E+00  0.000E+00
  -8.936  0.000E+00  0.000E+00  0.000E+00  0.000E+00
  -8.836  0.000E+00  0.000E+00  0.000E+00  0.000E+00
  -8.736  0.137E-13  0.910E-15  0.404E-14  0.870E-14
  -8.636  0.616E-12  0.395E-13  0.173E-12  0.404E-12
  -8.536  0.189E-10  0.120E-11  0.528E-11  0.125E-10
  -8.436  0.446E-09  0.278E-10  0.123E-09  0.295E-09
  -8.336  0.805E-08  0.497E-09  0.220E-08  0.536E-08
  -8.236  0.112E-06  0.683E-08  0.302E-07  0.748E-07
  -8.136  0.119E-05  0.722E-07  0.320E-06  0.803E-06
  -8.036  0.983E-05  0.589E-06  0.261E-05  0.663E-05
  -7.936  0.624E-04  0.373E-05  0.165E-04  0.423E-04
  -7.836  0.307E-03  0.183E-04  0.809E-04  0.208E-03
  -7.736  0.118E-02  0.707E-04  0.312E-03  0.794E-03
  -7.636  0.354E-02  0.217E-03  0.963E-03  0.236E-02
  -7.536  0.848E-02  0.544E-03  0.241E-02  0.552E-02
  -7.436  0.165E-01  0.115E-02  0.503E-02  0.103E-01
  -7.336  0.270E-01  0.219E-02  0.898E-02  0.158E-01
  -7.236  0.385E-01  0.391E-02  0.140E-01  0.206E-01
  -7.136  0.503E-01  0.671E-02  0.194E-01  0.242E-01
  -7.036  0.620E-01  0.109E-01  0.241E-01  0.269E-01
  -6.936  0.734E-01  0.164E-01  0.277E-01  0.293E-01
  -6.836  0.831E-01  0.222E-01  0.296E-01  0.312E-01
  -6.736  0.885E-01  0.270E-01  0.296E-01  0.318E-01
  -6.636  0.874E-01  0.297E-01  0.275E-01  0.302E-01
  -6.536  0.796E-01  0.298E-01  0.237E-01  0.261E-01
  -6.436  0.671E-01  0.277E-01  0.189E-01  0.205E-01
  -6.336  0.531E-01  0.241E-01  0.140E-01  0.149E-01
  -6.236  0.405E-01  0.201E-01  0.988E-02  0.105E-01
  -6.136  0.319E-01  0.173E-01  0.678E-02  0.788E-02
  -6.036  0.285E-01  0.167E-01  0.479E-02  0.702E-02
  -5.936  0.295E-01  0.183E-01  0.379E-02  0.737E-02
  -5.836  0.325E-01  0.206E-01  0.367E-02  0.823E-02
  -5.736  0.358E-01  0.219E-01  0.454E-02  0.936E-02
  -5.636  0.402E-01  0.222E-01  0.669E-02  0.113E-01
  -5.536  0.486E-01  0.230E-01  0.104E-01  0.153E-01
  -5.436  0.632E-01  0.253E-01  0.158E-01  0.221E-01
  -5.336  0.824E-01  0.283E-01  0.224E-01  0.317E-01
  -5.236  0.101E+00  0.301E-01  0.294E-01  0.420E-01
  -5.136  0.116E+00  0.309E-01  0.355E-01  0.494E-01
  -5.036  0.123E+00  0.318E-01  0.398E-01  0.510E-01
  -4.936  0.121E+00  0.342E-01  0.407E-01  0.463E-01
  -4.836  0.114E+00  0.381E-01  0.376E-01  0.380E-01
  -4.736  0.104E+00  0.424E-01  0.313E-01  0.301E-01
  -4.636  0.948E-01  0.455E-01  0.240E-01  0.253E-01
  -4.536  0.875E-01  0.458E-01  0.180E-01  0.237E-01
  -4.436  0.809E-01  0.425E-01  0.143E-01  0.241E-01
  -4.336  0.744E-01  0.371E-01  0.128E-01  0.245E-01
  -4.236  0.687E-01  0.320E-01  0.129E-01  0.238E-01
  -4.136  0.642E-01  0.283E-01  0.142E-01  0.217E-01
  -4.036  0.603E-01  0.256E-01  0.162E-01  0.185E-01
  -3.936  0.569E-01  0.230E-01  0.185E-01  0.154E-01
  -3.836  0.546E-01  0.203E-01  0.208E-01  0.135E-01
  -3.736  0.544E-01  0.186E-01  0.225E-01  0.133E-01
  -3.636  0.559E-01  0.185E-01  0.233E-01  0.141E-01
  -3.536  0.575E-01  0.196E-01  0.229E-01  0.149E-01
  -3.436  0.585E-01  0.210E-01  0.220E-01  0.155E-01
  -3.336  0.598E-01  0.224E-01  0.215E-01  0.160E-01
  -3.236  0.618E-01  0.236E-01  0.215E-01  0.167E-01
  -3.136  0.639E-01  0.243E-01  0.218E-01  0.177E-01
  -3.036  0.651E-01  0.239E-01  0.219E-01  0.193E-01
  -2.936  0.655E-01  0.223E-01  0.217E-01  0.216E-01
  -2.836  0.657E-01  0.202E-01  0.213E-01  0.243E-01
  -2.736  0.656E-01  0.184E-01  0.205E-01  0.266E-01
  -2.636  0.639E-01  0.170E-01  0.193E-01  0.276E-01
  -2.536  0.602E-01  0.156E-01  0.180E-01  0.266E-01
  -2.436  0.560E-01  0.144E-01  0.175E-01  0.242E-01
  -2.336  0.547E-01  0.142E-01  0.192E-01  0.213E-01
  -2.236  0.583E-01  0.159E-01  0.237E-01  0.188E-01
  -2.136  0.659E-01  0.191E-01  0.300E-01  0.167E-01
  -2.036  0.738E-01  0.226E-01  0.360E-01  0.153E-01
  -1.936  0.785E-01  0.246E-01  0.390E-01  0.149E-01
  -1.836  0.791E-01  0.246E-01  0.374E-01  0.171E-01
  -1.736  0.785E-01  0.230E-01  0.317E-01  0.238E-01
  -1.636  0.810E-01  0.205E-01  0.242E-01  0.363E-01
  -1.536  0.897E-01  0.180E-01  0.172E-01  0.545E-01
  -1.436  0.103E+00  0.156E-01  0.118E-01  0.760E-01
  -1.336  0.115E+00  0.131E-01  0.810E-02  0.938E-01
  -1.236  0.113E+00  0.102E-01  0.533E-02  0.978E-01
  -1.136  0.937E-01  0.696E-02  0.319E-02  0.835E-01
  -1.036  0.629E-01  0.404E-02  0.164E-02  0.572E-01
  -0.936  0.337E-01  0.193E-02  0.699E-03  0.311E-01
  -0.836  0.143E-01  0.744E-03  0.240E-03  0.133E-01
  -0.736  0.479E-02  0.230E-03  0.657E-04  0.450E-02
  -0.636  0.127E-02  0.595E-04  0.152E-04  0.119E-02
  -0.536  0.297E-03  0.363E-04  0.116E-04  0.249E-03
  -0.436  0.275E-03  0.162E-03  0.608E-04  0.521E-04
  -0.336  0.115E-02  0.780E-03  0.305E-03  0.662E-04
  -0.236  0.433E-02  0.290E-02  0.119E-02  0.242E-03
  -0.136  0.126E-01  0.829E-02  0.358E-02  0.739E-03
  -0.036  0.283E-01  0.182E-01  0.835E-02  0.175E-02
   0.064  0.489E-01  0.305E-01  0.152E-01  0.324E-02
   0.164  0.655E-01  0.394E-01  0.215E-01  0.466E-02
   0.264  0.682E-01  0.390E-01  0.239E-01  0.526E-02
   0.364  0.553E-01  0.298E-01  0.208E-01  0.467E-02
   0.464  0.352E-01  0.176E-01  0.143E-01  0.330E-02
   0.564  0.180E-01  0.810E-02  0.787E-02  0.201E-02
   0.664  0.840E-02  0.316E-02  0.375E-02  0.148E-02
   0.764  0.601E-02  0.166E-02  0.227E-02  0.208E-02
   0.864  0.860E-02  0.203E-02  0.272E-02  0.386E-02
   0.964  0.142E-01  0.334E-02  0.422E-02  0.668E-02
   1.064  0.214E-01  0.517E-02  0.593E-02  0.103E-01
   1.164  0.291E-01  0.733E-02  0.719E-02  0.146E-01
   1.264  0.363E-01  0.956E-02  0.774E-02  0.190E-01
   1.364  0.413E-01  0.113E-01  0.776E-02  0.223E-01
   1.464  0.427E-01  0.118E-01  0.765E-02  0.232E-01
   1.564  0.405E-01  0.110E-01  0.772E-02  0.217E-01
   1.664  0.370E-01  0.976E-02  0.807E-02  0.192E-01
   1.764  0.348E-01  0.882E-02  0.864E-02  0.174E-01
   1.864  0.348E-01  0.848E-02  0.941E-02  0.169E-01
   1.964  0.362E-01  0.850E-02  0.103E-01  0.174E-01
   2.064  0.371E-01  0.845E-02  0.110E-01  0.176E-01
   2.164  0.354E-01  0.794E-02  0.110E-01  0.164E-01
   2.264  0.299E-01  0.670E-02  0.973E-02  0.135E-01
   2.364  0.217E-01  0.485E-02  0.739E-02  0.948E-02
   2.464  0.132E-01  0.293E-02  0.467E-02  0.556E-02
   2.564  0.655E-02  0.145E-02  0.242E-02  0.269E-02
   2.664  0.267E-02  0.597E-03  0.101E-02  0.106E-02
   2.764  0.884E-03  0.207E-03  0.334E-03  0.343E-03
   2.864  0.241E-03  0.620E-04  0.879E-04  0.909E-04
   2.964  0.544E-04  0.162E-04  0.183E-04  0.199E-04
   3.064  0.103E-04  0.364E-05  0.300E-05  0.367E-05
   3.164  0.165E-05  0.686E-06  0.392E-06  0.574E-06
   3.264  0.222E-06  0.105E-06  0.410E-07  0.762E-07
   3.364  0.248E-07  0.128E-07  0.346E-08  0.850E-08
   3.464  0.224E-08  0.123E-08  0.238E-09  0.778E-09
