# E (eV)   ldos(E)   pdos(E)    pdos(E)    pdos(E)   
 -16.436  0.513E-07  0.452E-07  0.273E-08  0.341E-08
 -16.336  0.462E-06  0.402E-06  0.257E-07  0.339E-07
 -16.236  0.322E-05  0.277E-05  0.188E-06  0.264E-06
 -16.136  0.175E-04  0.148E-04  0.108E-05  0.161E-05
 -16.036  0.747E-04  0.620E-04  0.489E-05  0.782E-05
 -15.936  0.251E-03  0.203E-03  0.177E-04  0.303E-04
 -15.836  0.673E-03  0.527E-03  0.512E-04  0.950E-04
 -15.736  0.146E-02  0.109E-02  0.121E-03  0.243E-03
 -15.636  0.260E-02  0.184E-02  0.238E-03  0.516E-03
 -15.536  0.388E-02  0.256E-02  0.398E-03  0.920E-03
 -15.436  0.498E-02  0.299E-02  0.582E-03  0.141E-02
 -15.336  0.566E-02  0.300E-02  0.772E-03  0.188E-02
 -15.236  0.592E-02  0.267E-02  0.966E-03  0.228E-02
 -15.136  0.601E-02  0.225E-02  0.117E-02  0.259E-02
 -15.036  0.622E-02  0.200E-02  0.137E-02  0.285E-02
 -14.936  0.671E-02  0.205E-02  0.157E-02  0.309E-02
 -14.836  0.742E-02  0.233E-02  0.175E-02  0.334E-02
 -14.736  0.827E-02  0.271E-02  0.190E-02  0.366E-02
 -14.636  0.921E-02  0.308E-02  0.205E-02  0.409E-02
 -14.536  0.103E-01  0.339E-02  0.223E-02  0.471E-02
 -14.436  0.117E-01  0.368E-02  0.248E-02  0.557E-02
 -14.336  0.133E-01  0.399E-02  0.279E-02  0.657E-02
 -14.236  0.150E-01  0.432E-02  0.314E-02  0.753E-02
 -14.136  0.166E-01  0.470E-02  0.353E-02  0.836E-02
 -14.036  0.182E-01  0.514E-02  0.393E-02  0.908E-02
 -13.936  0.198E-01  0.567E-02  0.435E-02  0.974E-02
 -13.836  0.213E-01  0.632E-02  0.476E-02  0.103E-01
 -13.736  0.227E-01  0.703E-02  0.513E-02  0.105E-01
 -13.636  0.234E-01  0.765E-02  0.541E-02  0.103E-01
 -13.536  0.231E-01  0.796E-02  0.556E-02  0.962E-02
 -13.436  0.217E-01  0.786E-02  0.554E-02  0.831E-02
 -13.336  0.192E-01  0.733E-02  0.528E-02  0.656E-02
 -13.236  0.158E-01  0.643E-02  0.467E-02  0.465E-02
 -13.136  0.118E-01  0.519E-02  0.369E-02  0.293E-02
 -13.036  0.785E-02  0.373E-02  0.250E-02  0.161E-02
 -12.936  0.450E-02  0.231E-02  0.142E-02  0.769E-03
 -12.836  0.216E-02  0.119E-02  0.657E-03  0.314E-03
 -12.736  0.855E-03  0.502E-03  0.245E-03  0.108E-03
 -12.636  0.274E-03  0.170E-03  0.733E-04  0.308E-04
 -12.536  0.700E-04  0.454E-04  0.174E-04  0.718E-05
 -12.436  0.142E-04  0.957E-05  0.327E-05  0.134E-05
 -12.336  0.226E-05  0.158E-05  0.484E-06  0.199E-06
 -12.236  0.283E-06  0.203E-06  0.565E-07  0.233E-07
 -12.136  0.276E-07  0.203E-07  0.516E-08  0.213E-08
 -12.036  0.209E-08  0.157E-08  0.369E-09  0.152E-09
 -11.936  0.123E-09  0.936E-10  0.206E-10  0.841E-11
 -11.836  0.556E-11  0.431E-11  0.891E-12  0.360E-12
 -11.736  0.194E-12  0.153E-12  0.298E-13  0.119E-13
 -11.636  0.496E-14  0.400E-14  0.690E-15  0.277E-15
 -11.536  0.000E+00  0.000E+00  0.000E+00  0.000E+00
 -11.436  0.000E+00  0.000E+00  0.000E+00  0.000E+00
 -11.336  0.000E+00  0.000E+00  0.000E+00  0.000E+00
 -11.236  0.000E+00  0.000E+00  0.000E+00  0.000E+00
 -11.136  0.000E+00  0.000E+00  0.000E+00  0.000E+00
 -11.036  0.000E+00  0.000E+00  0.000E+00  0.000E+00
 -10.936  0.000E+00  0.000E+00  0.000E+00  0.000E+00
 -10.836  0.000E+00  0.000E+00  0.000E+00  0.000E+00
 -10.736  0.000E+00  0.000E+00  0.000E+00  0.000E+00
 -10.636  0.000E+00  0.000E+00  0.000E+00  0.000E+00
 -10.536  0.000E+00  0.000E+00  0.000E+00  0.000E+00
 -10.436  0.000E+00  0.000E+00  0.000E+00  0.000E+00
 -10.336  0.000E+00  0.000E+00  0.000E+00  0.000E+00
 -10.236  0.000E+00  0.000E+00  0.000E+00  0.000E+00
 -10.136  0.000E+00  0.000E+00  0.000E+00  0.000E+00
 -10.036  0.000E+00  0.000E+00  0.000E+00  0.000E+00
  -9.936  0.000E+00  0.000E+00  0.000E+00  0.000E+00
  -9.836  0.000E+00  0.000E+00  0.000E+00  0.000E+00
  -9.736  0.000E+00  0.000E+00  0.000E+00  0.000E+00
  -9.636  0.000E+00  0.000E+00  0.000E+00  0.000E+00
  -9.536  0.000E+00  0.000E+00  0.000E+00  0.000E+00
  -9.436  0.000E+00  0.000E+00  0.000E+00  0.000E+00
  -9.336  0.000E+00  0.000E+00  0.000E+00  0.000E+00
  -9.236  0.000E+00  0.000E+00  0.000E+00  0.000E+00
  -9.136  0.000E+00  0.000E+00  0.000E+00  0.000E+00
  -9.036  0.000E+00  0.000E+00  0.000E+00  0.000E+00
  -8.936  0.000E+00  0.000E+00  0.000E+00  0.000E+00
  -8.836  0.000E+00  0.000E+00  0.000E+00  0.000E+00
  -8.736  0.654E-13  0.829E-15  0.127E-13  0.519E-13
  -8.636  0.300E-11  0.351E-13  0.551E-12  0.242E-11
  -8.536  0.925E-10  0.106E-11  0.168E-10  0.746E-10
  -8.436  0.219E-08  0.244E-10  0.393E-09  0.177E-08
  -8.336  0.397E-07  0.432E-09  0.706E-08  0.322E-07
  -8.236  0.553E-06  0.589E-08  0.973E-07  0.450E-06
  -8.136  0.593E-05  0.620E-07  0.103E-05  0.483E-05
  -8.036  0.490E-04  0.506E-06  0.846E-05  0.400E-04
  -7.936  0.312E-03  0.323E-05  0.536E-04  0.255E-03
  -7.836  0.154E-02  0.164E-04  0.264E-03  0.126E-02
  -7.736  0.589E-02  0.687E-04  0.102E-02  0.480E-02
  -7.636  0.177E-01  0.246E-03  0.315E-02  0.143E-01
  -7.536  0.420E-01  0.793E-03  0.787E-02  0.334E-01
  -7.436  0.810E-01  0.235E-02  0.165E-01  0.622E-01
  -7.336  0.131E+00  0.638E-02  0.297E-01  0.948E-01
  -7.236  0.187E+00  0.154E-01  0.479E-01  0.124E+00
  -7.136  0.250E+00  0.325E-01  0.703E-01  0.148E+00
  -7.036  0.328E+00  0.595E-01  0.958E-01  0.173E+00
  -6.936  0.427E+00  0.956E-01  0.123E+00  0.208E+00
  -6.836  0.545E+00  0.137E+00  0.151E+00  0.257E+00
  -6.736  0.671E+00  0.177E+00  0.179E+00  0.316E+00
  -6.636  0.778E+00  0.208E+00  0.203E+00  0.368E+00
  -6.536  0.835E+00  0.222E+00  0.221E+00  0.391E+00
  -6.436  0.819E+00  0.215E+00  0.233E+00  0.371E+00
  -6.336  0.744E+00  0.187E+00  0.244E+00  0.313E+00
  -6.236  0.657E+00  0.152E+00  0.263E+00  0.242E+00
  -6.136  0.603E+00  0.124E+00  0.299E+00  0.180E+00
  -6.036  0.586E+00  0.108E+00  0.339E+00  0.139E+00
  -5.936  0.576E+00  0.105E+00  0.355E+00  0.117E+00
  -5.836  0.551E+00  0.116E+00  0.328E+00  0.106E+00
  -5.736  0.527E+00  0.150E+00  0.272E+00  0.105E+00
  -5.636  0.539E+00  0.209E+00  0.217E+00  0.113E+00
  -5.536  0.593E+00  0.281E+00  0.185E+00  0.128E+00
  -5.436  0.662E+00  0.343E+00  0.176E+00  0.144E+00
  -5.336  0.710E+00  0.375E+00  0.177E+00  0.158E+00
  -5.236  0.720E+00  0.374E+00  0.179E+00  0.168E+00
  -5.136  0.709E+00  0.351E+00  0.182E+00  0.175E+00
  -5.036  0.702E+00  0.324E+00  0.192E+00  0.186E+00
  -4.936  0.713E+00  0.303E+00  0.209E+00  0.201E+00
  -4.836  0.746E+00  0.291E+00  0.234E+00  0.222E+00
  -4.736  0.798E+00  0.288E+00  0.267E+00  0.243E+00
  -4.636  0.859E+00  0.295E+00  0.304E+00  0.260E+00
  -4.536  0.906E+00  0.305E+00  0.336E+00  0.266E+00
  -4.436  0.913E+00  0.306E+00  0.348E+00  0.260E+00
  -4.336  0.875E+00  0.292E+00  0.335E+00  0.247E+00
  -4.236  0.809E+00  0.267E+00  0.307E+00  0.236E+00
  -4.136  0.741E+00  0.239E+00  0.275E+00  0.227E+00
  -4.036  0.678E+00  0.213E+00  0.247E+00  0.218E+00
  -3.936  0.616E+00  0.191E+00  0.222E+00  0.203E+00
  -3.836  0.558E+00  0.178E+00  0.196E+00  0.183E+00
  -3.736  0.513E+00  0.176E+00  0.174E+00  0.163E+00
  -3.636  0.492E+00  0.186E+00  0.158E+00  0.148E+00
  -3.536  0.496E+00  0.203E+00  0.153E+00  0.140E+00
  -3.436  0.527E+00  0.223E+00  0.162E+00  0.142E+00
  -3.336  0.593E+00  0.250E+00  0.188E+00  0.156E+00
  -3.236  0.690E+00  0.285E+00  0.227E+00  0.179E+00
  -3.136  0.788E+00  0.320E+00  0.264E+00  0.204E+00
  -3.036  0.848E+00  0.340E+00  0.286E+00  0.222E+00
  -2.936  0.857E+00  0.339E+00  0.288E+00  0.230E+00
  -2.836  0.828E+00  0.320E+00  0.275E+00  0.233E+00
  -2.736  0.785E+00  0.297E+00  0.253E+00  0.235E+00
  -2.636  0.737E+00  0.274E+00  0.225E+00  0.238E+00
  -2.536  0.685E+00  0.252E+00  0.197E+00  0.236E+00
  -2.436  0.632E+00  0.229E+00  0.176E+00  0.227E+00
  -2.336  0.585E+00  0.206E+00  0.166E+00  0.213E+00
  -2.236  0.550E+00  0.187E+00  0.167E+00  0.197E+00
  -2.136  0.529E+00  0.174E+00  0.172E+00  0.183E+00
  -2.036  0.512E+00  0.167E+00  0.175E+00  0.171E+00
  -1.936  0.489E+00  0.162E+00  0.170E+00  0.157E+00
  -1.836  0.455E+00  0.159E+00  0.154E+00  0.141E+00
  -1.736  0.414E+00  0.158E+00  0.131E+00  0.125E+00
  -1.636  0.374E+00  0.157E+00  0.105E+00  0.111E+00
  -1.536  0.333E+00  0.151E+00  0.815E-01  0.101E+00
  -1.436  0.286E+00  0.132E+00  0.635E-01  0.906E-01
  -1.336  0.230E+00  0.102E+00  0.495E-01  0.778E-01
  -1.236  0.167E+00  0.696E-01  0.367E-01  0.607E-01
  -1.136  0.108E+00  0.420E-01  0.242E-01  0.415E-01
  -1.036  0.599E-01  0.224E-01  0.134E-01  0.241E-01
  -0.936  0.281E-01  0.105E-01  0.604E-02  0.116E-01
  -0.836  0.109E-01  0.416E-02  0.218E-02  0.457E-02
  -0.736  0.344E-02  0.137E-02  0.623E-03  0.145E-02
  -0.636  0.876E-03  0.367E-03  0.142E-03  0.368E-03
  -0.536  0.256E-03  0.116E-03  0.363E-04  0.103E-03
  -0.436  0.557E-03  0.270E-03  0.772E-04  0.209E-03
  -0.336  0.261E-02  0.127E-02  0.363E-03  0.980E-03
  -0.236  0.990E-02  0.480E-02  0.137E-02  0.373E-02
  -0.136  0.288E-01  0.139E-01  0.396E-02  0.110E-01
  -0.036  0.647E-01  0.310E-01  0.885E-02  0.249E-01
   0.064  0.112E+00  0.531E-01  0.152E-01  0.438E-01
   0.164  0.150E+00  0.702E-01  0.202E-01  0.598E-01
   0.264  0.156E+00  0.716E-01  0.208E-01  0.638E-01
   0.364  0.127E+00  0.567E-01  0.167E-01  0.533E-01
   0.464  0.819E-01  0.353E-01  0.109E-01  0.357E-01
   0.564  0.474E-01  0.185E-01  0.728E-02  0.216E-01
   0.664  0.401E-01  0.119E-01  0.945E-02  0.187E-01
   0.764  0.675E-01  0.168E-01  0.204E-01  0.303E-01
   0.864  0.130E+00  0.325E-01  0.418E-01  0.554E-01
   0.964  0.215E+00  0.567E-01  0.715E-01  0.871E-01
   1.064  0.302E+00  0.841E-01  0.103E+00  0.115E+00
   1.164  0.371E+00  0.108E+00  0.130E+00  0.133E+00
   1.264  0.418E+00  0.123E+00  0.152E+00  0.143E+00
   1.364  0.456E+00  0.132E+00  0.168E+00  0.157E+00
   1.464  0.498E+00  0.135E+00  0.181E+00  0.182E+00
   1.564  0.549E+00  0.137E+00  0.194E+00  0.219E+00
   1.664  0.607E+00  0.142E+00  0.207E+00  0.258E+00
   1.764  0.656E+00  0.149E+00  0.222E+00  0.284E+00
   1.864  0.678E+00  0.157E+00  0.233E+00  0.288E+00
   1.964  0.661E+00  0.160E+00  0.234E+00  0.267E+00
   2.064  0.603E+00  0.154E+00  0.220E+00  0.229E+00
   2.164  0.512E+00  0.137E+00  0.193E+00  0.183E+00
   2.264  0.398E+00  0.109E+00  0.154E+00  0.135E+00
   2.364  0.276E+00  0.759E-01  0.109E+00  0.904E-01
   2.464  0.166E+00  0.453E-01  0.673E-01  0.529E-01
   2.564  0.840E-01  0.227E-01  0.349E-01  0.263E-01
   2.664  0.354E-01  0.946E-02  0.150E-01  0.109E-01
   2.764  0.123E-01  0.323E-02  0.530E-02  0.373E-02
   2.864  0.347E-02  0.908E-03  0.153E-02  0.104E-02
   2.964  0.806E-03  0.209E-03  0.361E-03  0.236E-03
   3.064  0.153E-03  0.396E-04  0.696E-04  0.439E-04
   3.164  0.238E-04  0.614E-05  0.110E-04  0.673E-05
   3.264  0.303E-05  0.778E-06  0.141E-05  0.849E-06
   3.364  0.313E-06  0.796E-07  0.145E-06  0.878E-07
   3.464  0.259E-07  0.651E-08  0.120E-07  0.739E-08
